Time (sec)	Position (Flex Unit) (mm)	Force (N)	Strain (%)	Stress (MPa)
0.214446	6.56133	0.266667	0.787360	0.499999
0.239655	6.56117	0.300000	0.787340	0.562499
0.264865	6.56158	0.332836	0.787389	0.624067
0.290074	6.56264	0.398833	0.787517	0.747810
0.315283	6.56481	0.509326	0.787777	0.954985
0.340492	6.56702	0.656777	0.788042	1.23146
0.365702	6.56911	0.758105	0.788293	1.42145
0.390911	6.57158	0.894921	0.788589	1.67797
0.416120	6.57385	1.05427	0.788862	1.97675
0.441330	6.57595	1.19644	0.789114	2.24332
0.466539	6.57797	1.33125	0.789356	2.49608
0.491748	6.58004	1.46595	0.789605	2.74864
0.516958	6.58229	1.60085	0.789875	3.00160
0.542167	6.58405	1.74169	0.790086	3.26567
0.567376	6.58565	1.85470	0.790278	3.47756
0.592585	6.58739	1.96002	0.790487	3.67504
0.617795	6.58919	2.10104	0.790702	3.93944
0.643004	6.59120	2.20278	0.790944	4.13020
0.668213	6.59300	2.34654	0.791160	4.39976
0.693423	6.59480	2.48440	0.791375	4.65825
0.718632	6.59661	2.59104	0.791594	4.85819
0.743841	6.59855	2.69641	0.791825	5.05577
0.769051	6.60048	2.81385	0.792058	5.27596
0.794260	6.60244	2.95642	0.792293	5.54328
0.819469	6.60423	3.08220	0.792508	5.77912
0.844678	6.60592	3.18867	0.792711	5.97874
0.869888	6.60768	3.31463	0.792922	6.21493
0.895097	6.60952	3.45302	0.793142	6.47440
0.920306	6.61156	3.58825	0.793388	6.72796
0.945516	6.61365	3.72234	0.793638	6.97939
0.970725	6.61553	3.85670	0.793863	7.23130
0.995934	6.61729	4.01644	0.794075	7.53082
1.02114	6.61880	4.14107	0.794256	7.76450
1.04635	6.62022	4.25099	0.794426	7.97059
1.07156	6.62240	4.41772	0.794688	8.28320
1.09677	6.62476	4.59423	0.794971	8.61417
1.12198	6.62673	4.74671	0.795207	8.90007
1.14719	6.62836	4.88450	0.795403	9.15843
1.17240	6.63011	5.04560	0.795613	9.46049
1.19761	6.63208	5.22978	0.795850	9.80582
1.22282	6.63393	5.38431	0.796072	10.0956
1.24803	6.63573	5.52930	0.796288	10.3674
1.27324	6.63762	5.68704	0.796514	10.6632
1.29845	6.63956	5.82539	0.796747	10.9226
1.32366	6.64144	6.01069	0.796973	11.2700
1.34886	6.64331	6.17929	0.797198	11.5861
1.37407	6.64519	6.35255	0.797423	11.9110
1.39928	6.64707	6.52879	0.797648	12.2415
1.42449	6.64891	6.66032	0.797869	12.4881
1.44970	6.65067	6.84606	0.798080	12.8363
1.47491	6.65261	7.01520	0.798313	13.1535
1.50012	6.65456	7.17682	0.798548	13.4565
1.52533	6.65648	7.34768	0.798777	13.7769
1.55054	6.65847	7.54718	0.799017	14.1509
1.57575	6.66023	7.69878	0.799228	14.4352
1.60096	6.66206	7.85265	0.799447	14.7237
1.62617	6.66387	8.02727	0.799665	15.0511
1.65138	6.66568	8.21470	0.799882	15.4025
1.67659	6.66765	8.39841	0.800118	15.7470
1.70179	6.66906	8.51177	0.800288	15.9596
1.72700	6.67085	8.66236	0.800502	16.2419
1.75221	6.67307	8.87146	0.800769	16.6340
1.77742	6.67464	9.01067	0.800957	16.8950
1.80263	6.67702	9.23249	0.801243	17.3109
1.82784	6.67921	9.41370	0.801505	17.6507
1.85305	6.68050	9.52675	0.801660	17.8626
1.87826	6.68281	9.73108	0.801937	18.2458
1.90347	6.68441	9.87910	0.802129	18.5233
1.92868	6.68588	10.0257	0.802306	18.7981
1.95389	6.68822	10.2315	0.802587	19.1840
1.97910	6.69064	10.4703	0.802877	19.6318
2.00431	6.69205	10.6043	0.803046	19.8831
2.02952	6.69359	10.7424	0.803231	20.1420
2.05472	6.69659	10.9869	0.803591	20.6004
2.07993	6.69857	11.1494	0.803829	20.9051
2.10514	6.70049	11.3554	0.804058	21.2914
2.13035	6.70213	11.5110	0.804255	21.5830
2.15556	6.70422	11.6946	0.804507	21.9273
2.18077	6.70591	11.8413	0.804710	22.2024
2.20598	6.70801	12.0508	0.804961	22.5951
2.23119	6.70988	12.2002	0.805185	22.8754
2.25640	6.71202	12.4015	0.805442	23.2528
2.28161	6.71402	12.5856	0.805683	23.5980
2.30682	6.71594	12.7735	0.805913	23.9502
2.33203	6.71774	12.9269	0.806128	24.2379
2.35724	6.71932	13.0815	0.806319	24.5278
2.38245	6.72211	13.3405	0.806653	25.0133
2.40765	6.72378	13.4775	0.806853	25.2703
2.43286	6.72544	13.6182	0.807053	25.5340
2.45807	6.72814	13.8809	0.807377	26.0267
2.48328	6.72993	14.0250	0.807592	26.2969
2.50849	6.73255	14.2705	0.807906	26.7572
2.53370	6.73396	14.4088	0.808075	27.0165
2.55891	6.73545	14.5301	0.808254	27.2440
2.58412	6.73777	14.7304	0.808533	27.6194
2.60933	6.73989	14.9275	0.808787	27.9890
2.63454	6.74262	15.1586	0.809115	28.4224
2.65975	6.74478	15.3477	0.809374	28.7770
2.68496	6.74683	15.5379	0.809620	29.1336
2.71017	6.74893	15.7255	0.809872	29.4853
2.73538	6.75102	15.9245	0.810123	29.8584
2.76059	6.75307	16.1353	0.810368	30.2536
2.78579	6.75520	16.3216	0.810624	30.6030
2.81100	6.75747	16.5091	0.810896	30.9546
2.83621	6.75960	16.6922	0.811152	31.2978
2.86142	6.76147	16.8761	0.811376	31.6426
2.88663	6.76371	17.1047	0.811646	32.0713
2.91184	6.76595	17.2965	0.811914	32.4309
2.93705	6.76812	17.4687	0.812174	32.7537
2.96226	6.77029	17.6608	0.812435	33.1139
2.98747	6.77256	17.8739	0.812707	33.5135
3.01268	6.77484	18.0651	0.812981	33.8720
3.03789	6.77704	18.2539	0.813245	34.2260
3.06310	6.77893	18.4208	0.813471	34.5389
3.08831	6.78053	18.5658	0.813663	34.8109
3.11352	6.78279	18.7691	0.813934	35.1920
3.13872	6.78569	19.0174	0.814282	35.6576
3.16393	6.78824	19.2482	0.814589	36.0904
3.18914	6.79047	19.4392	0.814856	36.4485
3.21435	6.79263	19.6127	0.815115	36.7737
3.23956	6.79475	19.8253	0.815370	37.1724
3.26477	6.79691	20.0407	0.815629	37.5763
3.28998	6.79916	20.2169	0.815899	37.9066
3.31519	6.80144	20.4044	0.816173	38.2581
3.34040	6.80370	20.6131	0.816444	38.6495
3.36561	6.80585	20.8015	0.816702	39.0027
3.39082	6.80787	20.9899	0.816944	39.3559
3.41603	6.81020	21.1784	0.817224	39.7095
3.44124	6.81248	21.3817	0.817498	40.0906
3.46645	6.81468	21.5970	0.817761	40.4943
3.49165	6.81695	21.8093	0.818034	40.8924
3.51686	6.81925	21.9989	0.818310	41.2479
3.54207	6.82133	22.1785	0.818559	41.5846
3.56728	6.82313	22.3618	0.818775	41.9283
3.59249	6.82548	22.5466	0.819058	42.2747
3.61770	6.82761	22.7280	0.819313	42.6150
3.64291	6.82987	22.9292	0.819584	42.9922
3.66812	6.83276	23.1863	0.819932	43.4743
3.69333	6.83517	23.4004	0.820220	43.8757
3.71854	6.83717	23.5873	0.820461	44.2261
3.74375	6.83939	23.7955	0.820727	44.6165
3.76896	6.84161	23.9832	0.820993	44.9685
3.79417	6.84376	24.1597	0.821252	45.2993
3.81938	6.84591	24.3732	0.821509	45.6997
3.84458	6.84806	24.5616	0.821767	46.0530
3.86979	6.85032	24.7715	0.822039	46.4465
3.89500	6.85253	24.9716	0.822304	46.8218
3.92021	6.85473	25.1603	0.822568	47.1754
3.94542	6.85702	25.3522	0.822843	47.5352
3.97063	6.85916	25.5657	0.823099	47.9355
3.99584	6.86142	25.7805	0.823370	48.3385
4.02105	6.86371	25.9799	0.823645	48.7123
4.04626	6.86595	26.1683	0.823914	49.0655
4.07147	6.86809	26.3593	0.824171	49.4236
4.09668	6.87025	26.5747	0.824430	49.8275
4.12189	6.87264	26.7662	0.824716	50.1865
4.14710	6.87501	26.9916	0.825001	50.6092
4.17231	6.87729	27.2209	0.825275	51.0392
4.19752	6.87921	27.3667	0.825506	51.3125
4.22272	6.88134	27.5528	0.825761	51.6614
4.24793	6.88361	27.7406	0.826033	52.0135
4.27314	6.88590	27.9477	0.826308	52.4019
4.29835	6.88819	28.1509	0.826583	52.7829
4.32356	6.89047	28.3443	0.826856	53.1454
4.34877	6.89276	28.5599	0.827131	53.5497
4.37398	6.89491	28.7485	0.827389	53.9034
4.39919	6.89726	28.9566	0.827671	54.2936
4.42440	6.89963	29.1727	0.827955	54.6987
4.44961	6.90188	29.3815	0.828226	55.0903
4.47482	6.90403	29.5694	0.828483	55.4425
4.50003	6.90634	29.7873	0.828761	55.8511
4.52524	6.90851	29.9799	0.829021	56.2122
4.55045	6.91080	30.1826	0.829297	56.5923
4.57565	6.91315	30.3904	0.829578	56.9818
4.60086	6.91528	30.5777	0.829834	57.3330
4.62607	6.91758	30.7936	0.830109	57.7380
4.65128	6.91987	31.0094	0.830384	58.1425
4.67649	6.92189	31.1921	0.830626	58.4850
4.70170	6.92383	31.3626	0.830859	58.8047
4.72691	6.92676	31.6233	0.831211	59.2937
4.75212	6.92919	31.8391	0.831503	59.6981
4.77733	6.93124	32.0524	0.831749	60.0982
4.80254	6.93342	32.2499	0.832010	60.4685
4.82775	6.93570	32.4378	0.832284	60.8207
4.85296	6.93796	32.6293	0.832555	61.1798
4.87817	6.94012	32.8454	0.832815	61.5851
4.90338	6.94227	33.0608	0.833073	61.9888
4.92858	6.94441	33.2494	0.833329	62.3426
4.95379	6.94627	33.4190	0.833552	62.6605
4.97900	6.94876	33.6443	0.833851	63.0830
5.00421	6.95020	33.8033	0.834024	63.3811
5.02942	6.95300	34.0289	0.834360	63.8041
5.05463	6.95471	34.1881	0.834566	64.1027
5.07984	6.95739	34.4479	0.834887	64.5896
5.10505	6.95916	34.5819	0.835100	64.8409
5.13026	6.96184	34.8341	0.835421	65.3138
5.15547	6.96376	35.0215	0.835651	65.6652
5.18068	6.96621	35.2249	0.835945	66.0466
5.20589	6.96821	35.3986	0.836185	66.3722
5.23110	6.97045	35.6003	0.836454	66.7504
5.25631	6.97327	35.8935	0.836792	67.3002
5.28151	6.97500	36.0526	0.837000	67.5986
5.30672	6.97777	36.3100	0.837332	68.0811
5.33193	6.97954	36.4708	0.837545	68.3827
5.35714	6.98229	36.7197	0.837874	68.8493
5.38235	6.98423	36.8877	0.838107	69.1644
5.40756	6.98678	37.1279	0.838414	69.6147
5.43277	6.98874	37.3042	0.838649	69.9453
5.45798	6.99122	37.5386	0.838946	70.3848
5.48319	6.99336	37.7265	0.839204	70.7370
5.50840	6.99600	37.9522	0.839520	71.1603
5.53361	6.99810	38.1715	0.839771	71.5714
5.55882	7.00033	38.3662	0.840039	71.9365
5.58403	7.00263	38.5782	0.840316	72.3340
5.60924	7.00482	38.7795	0.840578	72.7115
5.63445	7.00733	39.0045	0.840879	73.1334
5.65965	7.00931	39.2266	0.841117	73.5497
5.68486	7.01194	39.4641	0.841433	73.9950
5.71007	7.01390	39.6270	0.841669	74.3004
5.73528	7.01608	39.8366	0.841929	74.6936
5.76049	7.01834	40.0439	0.842201	75.0821
5.78570	7.02095	40.2784	0.842514	75.5218
5.81091	7.02297	40.4743	0.842757	75.8892
5.83612	7.02530	40.6971	0.843037	76.3069
5.86133	7.02773	40.9135	0.843328	76.7127
5.88654	7.02987	41.1187	0.843584	77.0975
5.91175	7.03241	41.3693	0.843889	77.5674
5.93696	7.03429	41.5454	0.844115	77.8976
5.96217	7.03680	41.7825	0.844416	78.3422
5.98738	7.03876	41.9586	0.844651	78.6723
6.01258	7.04112	42.1618	0.844934	79.0532
6.03779	7.04347	42.3641	0.845216	79.4326
6.06300	7.04576	42.5747	0.845491	79.8275
6.08821	7.04816	42.8092	0.845779	80.2671
6.11342	7.05019	43.0195	0.846023	80.6614
6.13863	7.05271	43.2465	0.846325	81.0870
6.16384	7.05483	43.4330	0.846580	81.4368
6.18905	7.05751	43.6856	0.846901	81.9104
6.21426	7.05917	43.8505	0.847101	82.2196
6.23947	7.06196	44.1120	0.847436	82.7099
6.26468	7.06436	44.3308	0.847723	83.1200
6.28989	7.06607	44.4602	0.847928	83.3628
6.31510	7.06882	44.7150	0.848258	83.8405
6.34031	7.07060	44.8769	0.848472	84.1441
6.36551	7.07321	45.1273	0.848785	84.6135
6.39072	7.07601	45.3840	0.849121	85.0949
6.41593	7.07756	45.5393	0.849307	85.3860
6.44114	7.08014	45.7639	0.849617	85.8072
6.46635	7.08168	45.9175	0.849801	86.0952
6.49156	7.08459	46.1951	0.850151	86.6157
6.51677	7.08629	46.3294	0.850355	86.8676
6.54198	7.08915	46.6073	0.850698	87.3886
6.56719	7.09087	46.7855	0.850904	87.7226
6.59240	7.09364	47.0127	0.851237	88.1487
6.61761	7.09549	47.1865	0.851459	88.4746
6.64282	7.09799	47.4489	0.851759	88.9665
6.66803	7.10016	47.6434	0.852020	89.3313
6.69324	7.10248	47.8649	0.852298	89.7466
6.71844	7.10477	48.0684	0.852572	90.1281
6.74365	7.10711	48.2759	0.852853	90.5172
6.76886	7.10895	48.4450	0.853074	90.8342
6.79407	7.11156	48.7189	0.853387	91.3478
6.81928	7.11353	48.9026	0.853623	91.6923
6.84449	7.11639	49.1576	0.853967	92.1704
6.86970	7.11862	49.3615	0.854234	92.5527
6.89491	7.12074	49.5713	0.854488	92.9461
6.92012	7.12289	49.7560	0.854747	93.2923
6.94533	7.12487	49.9536	0.854984	93.6629
6.97054	7.12732	50.1862	0.855279	94.0990
6.99575	7.12936	50.3695	0.855523	94.4428
7.02096	7.13223	50.6247	0.855868	94.9212
7.04617	7.13406	50.8037	0.856087	95.2568
7.07138	7.13699	51.0872	0.856438	95.7883
7.09658	7.13871	51.2751	0.856645	96.1407
7.12179	7.14141	51.5017	0.856969	96.5655
7.14700	7.14306	51.6261	0.857167	96.7989
7.17221	7.14590	51.9148	0.857507	97.3402
7.19742	7.14754	52.0704	0.857705	97.6319
7.22263	7.15038	52.3281	0.858046	98.1149
7.24784	7.15257	52.5011	0.858308	98.4393
7.27305	7.15527	52.7436	0.858632	98.8940
7.29826	7.15749	52.9656	0.858899	99.3104
7.32347	7.15987	53.2178	0.859185	99.7833
7.34868	7.16202	53.4157	0.859442	100.154
7.37389	7.16451	53.6255	0.859741	100.548
7.39910	7.16641	53.8019	0.859969	100.878
7.42431	7.16905	54.0554	0.860286	101.354
7.44951	7.17125	54.2533	0.860550	101.725
7.47472	7.17369	54.4692	0.860843	102.130
7.49993	7.17590	54.6891	0.861108	102.542
7.52514	7.17780	54.8782	0.861336	102.896
7.55035	7.18021	55.0941	0.861626	103.301
7.57556	7.18237	55.2872	0.861885	103.663
7.60077	7.18471	55.5094	0.862166	104.080
7.62598	7.18683	55.7044	0.862420	104.446
7.65119	7.18944	55.9639	0.862733	104.932
7.67640	7.19128	56.1254	0.862953	105.235
7.70161	7.19384	56.3502	0.863260	105.656
7.72682	7.19564	56.5300	0.863477	105.994
7.75203	7.19837	56.8030	0.863804	106.505
7.77724	7.20024	56.9556	0.864029	106.792
7.80244	7.20270	57.1863	0.864323	107.224
7.82765	7.20585	57.4637	0.864702	107.744
7.85286	7.20756	57.6223	0.864907	108.042
7.87807	7.21010	57.8433	0.865212	108.456
7.90328	7.21275	58.0926	0.865530	108.924
7.92849	7.21444	58.2862	0.865733	109.286
7.95370	7.21695	58.5098	0.866034	109.706
7.97891	7.21876	58.6433	0.866251	109.956
8.00412	7.22155	58.9217	0.866586	110.478
8.02933	7.22309	59.0755	0.866771	110.766
8.05454	7.22600	59.3330	0.867120	111.249
8.07975	7.22767	59.4861	0.867321	111.536
8.10496	7.23044	59.7589	0.867653	112.048
8.13017	7.23211	59.9288	0.867854	112.366
8.15537	7.23496	60.1874	0.868196	112.851
8.18058	7.23667	60.3472	0.868401	113.151
8.20579	7.23977	60.5993	0.868772	113.623
8.23100	7.24174	60.8075	0.869009	114.014
8.25621	7.24426	61.0462	0.869311	114.461
8.28142	7.24622	61.2332	0.869547	114.812
8.30663	7.24912	61.5010	0.869895	115.314
8.33184	7.25100	61.6761	0.870120	115.642
8.35705	7.25358	61.8795	0.870430	116.024
8.38226	7.25559	62.0681	0.870671	116.377
8.40747	7.25805	62.3382	0.870966	116.884
8.43268	7.25983	62.5093	0.871180	117.205
8.45789	7.26269	62.7366	0.871523	117.631
8.48310	7.26424	62.9241	0.871709	117.982
8.50831	7.26719	63.1834	0.872063	118.469
8.53351	7.26902	63.3402	0.872283	118.763
8.55872	7.27199	63.6320	0.872638	119.310
8.58393	7.27355	63.7886	0.872826	119.604
8.60914	7.27647	64.0468	0.873176	120.088
8.63435	7.27809	64.2094	0.873371	120.393
8.65956	7.28073	64.4830	0.873687	120.905
8.68477	7.28261	64.6744	0.873913	121.264
8.70998	7.28526	64.9129	0.874231	121.711
8.73519	7.28751	65.1113	0.874501	122.083
8.76040	7.28996	65.3295	0.874795	122.493
8.78561	7.29221	65.5638	0.875065	122.932
8.81082	7.29434	65.7826	0.875321	123.342
8.83603	7.29667	65.9889	0.875600	123.729
8.86124	7.29935	66.2195	0.875922	124.161
8.88644	7.30103	66.4196	0.876124	124.537
8.91165	7.30382	66.6794	0.876458	125.024
8.93686	7.30556	66.8394	0.876667	125.324
8.96207	7.30830	67.0631	0.876996	125.743
8.98728	7.31004	67.2228	0.877205	126.043
9.01249	7.31282	67.5151	0.877538	126.591
9.03770	7.31450	67.6816	0.877739	126.903
9.06291	7.31729	67.9340	0.878074	127.376
9.08812	7.31929	68.1204	0.878315	127.726
9.11333	7.32187	68.3535	0.878624	128.163
9.13854	7.32415	68.5577	0.878898	128.545
9.16375	7.32638	68.7709	0.879166	128.945
9.18896	7.32884	68.9904	0.879461	129.357
9.21417	7.33090	69.1869	0.879708	129.725
9.23937	7.33341	69.4239	0.880009	130.170
9.26458	7.33538	69.6043	0.880245	130.508
9.28979	7.33803	69.8538	0.880563	130.976
9.31500	7.33987	70.0532	0.880784	131.349
9.34021	7.34211	70.2370	0.881054	131.694
9.36542	7.34449	70.4371	0.881339	132.069
9.39063	7.34711	70.6619	0.881653	132.491
9.41584	7.34926	70.8947	0.881912	132.927
9.44105	7.35145	71.1104	0.882174	133.332
9.46626	7.35400	71.3154	0.882480	133.716
9.49147	7.35606	71.5034	0.882728	134.069
9.51668	7.35861	71.7439	0.883033	134.520
9.54189	7.36051	71.9189	0.883261	134.848
9.56710	7.36290	72.1238	0.883549	135.232
9.59230	7.36507	72.3311	0.883809	135.621
9.61751	7.36751	72.5678	0.884101	136.064
9.64272	7.36977	72.8089	0.884372	136.516
9.66793	7.37196	73.0126	0.884635	136.898
9.69314	7.37427	73.2325	0.884912	137.311
9.71835	7.37645	73.4245	0.885174	137.671
9.74356	7.37910	73.6899	0.885492	138.168
9.76877	7.38094	73.8710	0.885713	138.508
9.79398	7.38351	74.1177	0.886021	138.971
9.81919	7.38540	74.2482	0.886247	139.215
9.84440	7.38822	74.5062	0.886586	139.699
9.86961	7.39047	74.7590	0.886856	140.173
9.89482	7.39218	74.9462	0.887062	140.524
9.92003	7.39516	75.2086	0.887419	141.016
9.94524	7.39699	75.3657	0.887639	141.310
9.97044	7.39972	75.6224	0.887967	141.792
9.99565	7.40145	75.7928	0.888174	142.111
10.0209	7.40417	76.0385	0.888501	142.572
10.0461	7.40616	76.2382	0.888740	142.946
10.0713	7.40871	76.4896	0.889045	143.418
10.0965	7.41113	76.6966	0.889335	143.806
10.1217	7.41341	76.9074	0.889609	144.201
10.1469	7.41566	77.1547	0.889879	144.665
10.1721	7.41788	77.3682	0.890145	145.065
10.1973	7.42043	77.5844	0.890452	145.470
10.2225	7.42235	77.7605	0.890682	145.801
10.2477	7.42483	78.0184	0.890979	146.284
10.2730	7.42691	78.2446	0.891229	146.708
10.2982	7.42931	78.4321	0.891518	147.060
10.3234	7.43168	78.6511	0.891801	147.471
10.3486	7.43409	78.8784	0.892091	147.897
10.3738	7.43594	79.0865	0.892312	148.287
10.3990	7.43811	79.2808	0.892573	148.651
10.4242	7.44113	79.5397	0.892936	149.137
10.4494	7.44298	79.6983	0.893158	149.434
10.4746	7.44567	79.9502	0.893480	149.906
10.4998	7.44752	80.1503	0.893702	150.282
10.5250	7.45021	80.3939	0.894025	150.738
10.5503	7.45225	80.5783	0.894270	151.084
10.5755	7.45491	80.8445	0.894589	151.583
10.6007	7.45689	81.0058	0.894827	151.886
10.6259	7.45928	81.2602	0.895113	152.363
10.6511	7.46183	81.4920	0.895420	152.797
10.6763	7.46398	81.7125	0.895677	153.211
10.7015	7.46655	81.9426	0.895985	153.642
10.7267	7.46847	82.1304	0.896216	153.994
10.7519	7.47107	82.3754	0.896528	154.454
10.7771	7.47304	82.5464	0.896765	154.774
10.8024	7.47584	82.8008	0.897101	155.251
10.8276	7.47760	82.9597	0.897312	155.549
10.8528	7.48031	83.2455	0.897637	156.085
10.8780	7.48204	83.4043	0.897845	156.383
10.9032	7.48453	83.6219	0.898144	156.791
10.9284	7.48685	83.8520	0.898422	157.222
10.9536	7.48910	84.0785	0.898692	157.647
10.9788	7.49175	84.3355	0.899010	158.129
11.0040	7.49389	84.5302	0.899267	158.494
11.0292	7.49657	84.7968	0.899589	158.994
11.0544	7.49841	84.9353	0.899809	159.253
11.0797	7.50120	85.2195	0.900145	159.786
11.1049	7.50298	85.4147	0.900358	160.152
11.1301	7.50590	85.6402	0.900708	160.575
11.1553	7.50761	85.8000	0.900913	160.875
11.1805	7.51046	86.0588	0.901256	161.360
11.2057	7.51216	86.2156	0.901459	161.654
11.2309	7.51496	86.4731	0.901796	162.137
11.2561	7.51663	86.6300	0.901996	162.431
11.2813	7.51938	86.8881	0.902326	162.915
11.3065	7.52131	87.0595	0.902557	163.236
11.3317	7.52402	87.3024	0.902883	163.692
11.3570	7.52603	87.5028	0.903123	164.067
11.3822	7.52797	87.6832	0.903357	164.406
11.4074	7.53133	87.9950	0.903760	164.990
11.4326	7.53359	88.1981	0.904031	165.371
11.4578	7.53558	88.3578	0.904269	165.671
11.4830	7.53818	88.5898	0.904582	166.106
11.5082	7.54030	88.7896	0.904837	166.480
11.5334	7.54255	89.0384	0.905106	166.947
11.5586	7.54491	89.2633	0.905389	167.368
11.5838	7.54692	89.4251	0.905630	167.672
11.6090	7.54951	89.6700	0.905941	168.131
11.6343	7.55145	89.8449	0.906174	168.459
11.6595	7.55422	90.1049	0.906506	168.946
11.6847	7.55580	90.2632	0.906696	169.243
11.7099	7.55860	90.5299	0.907031	169.743
11.7351	7.56043	90.6866	0.907252	170.037
11.7603	7.56330	90.9731	0.907596	170.574
11.7855	7.56516	91.1663	0.907820	170.937
11.8107	7.56783	91.3904	0.908140	171.357
11.8359	7.56963	91.5657	0.908356	171.685
11.8611	7.57220	91.8595	0.908664	172.236
11.8864	7.57432	92.0468	0.908919	172.587
11.9116	7.57683	92.2498	0.909220	172.968
11.9368	7.57921	92.4712	0.909506	173.383
11.9620	7.58156	92.6952	0.909787	173.803
11.9872	7.58374	92.9242	0.910049	174.233
12.0124	7.58618	93.1676	0.910341	174.689
12.0376	7.58818	93.3775	0.910582	175.083
12.0628	7.59105	93.6374	0.910926	175.570
12.0880	7.59280	93.7970	0.911136	175.869
12.1132	7.59557	94.0575	0.911469	176.358
12.1384	7.59718	94.2175	0.911661	176.658
12.1637	7.60001	94.4774	0.912002	177.145
12.1889	7.60175	94.6410	0.912210	177.452
12.2141	7.60458	94.8971	0.912549	177.932
12.2393	7.60651	95.0881	0.912781	178.290
12.2645	7.60900	95.3223	0.913080	178.729
12.2897	7.61110	95.5198	0.913332	179.099
12.3149	7.61353	95.7697	0.913624	179.568
12.3401	7.61593	95.9892	0.913912	179.979
12.3653	7.61807	96.1932	0.914168	180.362
12.3905	7.62055	96.4549	0.914466	180.853
12.4157	7.62259	96.6361	0.914711	181.192
12.4410	7.62496	96.8394	0.914995	181.574
12.4662	7.62725	97.0693	0.915270	182.005
12.4914	7.62995	97.3113	0.915593	182.458
12.5166	7.63205	97.5213	0.915845	182.852
12.5418	7.63464	97.7320	0.916157	183.247
12.5670	7.63693	97.9498	0.916431	183.656
12.5922	7.63912	98.1783	0.916694	184.084
12.6174	7.64155	98.4100	0.916986	184.519
12.6426	7.64360	98.5938	0.917233	184.863
12.6678	7.64622	98.8404	0.917546	185.326
12.6930	7.64810	99.0096	0.917771	185.643
12.7183	7.65103	99.3027	0.918124	186.192
12.7435	7.65288	99.4614	0.918346	186.490
12.7687	7.65571	99.7213	0.918686	186.977
12.7939	7.65745	99.8811	0.918893	187.277
12.8443	7.66183	100.300	0.919420	188.062
12.8443	7.66183	100.300	0.919420	188.062
12.8698	7.66453	100.543	0.919743	188.517
12.8952	7.66694	100.767	0.920032	188.938
12.9207	7.66925	100.986	0.920311	189.349
12.9462	7.67156	101.204	0.920587	189.756
12.9717	7.67370	101.404	0.920844	190.131
12.9971	7.67389	101.411	0.920866	190.145
13.0226	7.67261	101.232	0.920714	189.809
13.0481	7.67119	101.052	0.920542	189.472
13.0736	7.66820	100.760	0.920183	188.924
13.0990	7.66643	100.578	0.919971	188.583
13.1245	7.66339	100.264	0.919607	187.995
13.1500	7.66157	100.090	0.919388	187.669
13.1754	7.65858	99.7806	0.919030	187.088
13.2009	7.65658	99.5579	0.918790	186.671
13.2264	7.65374	99.2872	0.918449	186.163
13.2519	7.65163	99.0634	0.918196	185.744
13.2773	7.64910	98.7796	0.917892	185.211
13.3028	7.64687	98.5702	0.917624	184.819
13.3283	7.64431	98.3317	0.917317	184.372
13.3538	7.64179	98.1124	0.917015	183.960
13.3792	7.63954	97.8517	0.916744	183.472
13.4047	7.63691	97.5638	0.916429	182.932
13.4302	7.63444	97.3440	0.916133	182.520
13.4556	7.63198	97.0856	0.915838	182.035
13.4811	7.62933	96.8327	0.915519	181.561
13.5066	7.62762	96.6721	0.915314	181.260
13.5321	7.62476	96.3729	0.914972	180.699
13.5575	7.62219	96.1154	0.914663	180.216
13.5830	7.62032	95.9325	0.914439	179.873
13.6085	7.61770	95.6850	0.914124	179.409
13.6340	7.61585	95.5188	0.913903	179.097
13.6594	7.61312	95.2286	0.913574	178.553
13.6849	7.61144	95.0707	0.913372	178.257
13.7104	7.60858	94.7709	0.913029	177.695
13.7358	7.60689	94.5889	0.912827	177.354
13.7613	7.60407	94.3294	0.912488	176.867
13.7868	7.60219	94.1357	0.912262	176.504
13.8123	7.59930	93.8403	0.911916	175.950
13.8377	7.59751	93.6704	0.911702	175.632
13.8632	7.59491	93.4242	0.911389	175.170
13.8887	7.59301	93.2196	0.911162	174.786
13.9141	7.59043	92.9417	0.910852	174.265
13.9396	7.58816	92.7246	0.910579	173.858
13.9651	7.58576	92.4923	0.910291	173.423
13.9906	7.58378	92.2943	0.910053	173.052
14.0160	7.58150	92.0807	0.909780	172.651
14.0415	7.57861	91.7858	0.909434	172.098
14.0670	7.57664	91.6127	0.909197	171.773
14.0925	7.57388	91.3327	0.908866	171.248
14.1179	7.57188	91.1378	0.908625	170.883
14.1434	7.56934	90.8838	0.908321	170.407
14.1689	7.56710	90.6693	0.908052	170.005
14.1943	7.56484	90.4337	0.907780	169.563
14.2198	7.56240	90.1973	0.907488	169.120
14.2453	7.56016	89.9823	0.907219	168.716
14.2708	7.55774	89.7528	0.906929	168.286
14.2962	7.55578	89.5336	0.906694	167.875
14.3217	7.55294	89.2905	0.906353	167.419
14.3472	7.55110	89.1021	0.906132	167.066
14.3727	7.54836	88.8362	0.905804	166.568
14.3981	7.54665	88.6748	0.905598	166.265
14.4236	7.54389	88.3847	0.905266	165.721
14.4491	7.54204	88.1946	0.905045	165.365
14.4745	7.53920	87.9322	0.904704	164.873
14.5000	7.53747	87.7473	0.904497	164.526
14.5255	7.53504	87.4906	0.904205	164.045
14.5510	7.53219	87.2359	0.903863	163.567
14.5764	7.53015	87.0369	0.903618	163.194
14.6019	7.52752	86.7858	0.903303	162.723
14.6274	7.52530	86.5796	0.903036	162.337
14.6528	7.52296	86.3291	0.902755	161.867
14.6783	7.52078	86.1204	0.902493	161.475
14.7038	7.51864	85.9168	0.902237	161.094
14.7293	7.51602	85.6920	0.901922	160.672
14.7547	7.51387	85.5369	0.901664	160.381
14.7802	7.51132	85.2676	0.901358	159.877
14.8057	7.50933	85.0569	0.901120	159.482
14.8312	7.50652	84.8014	0.900782	159.002
14.8566	7.50467	84.6100	0.900561	158.643
14.8821	7.50199	84.3185	0.900239	158.097
14.9076	7.50024	84.1574	0.900029	157.795
14.9330	7.49729	83.8833	0.899675	157.281
14.9585	7.49551	83.7011	0.899462	156.939
14.9840	7.49263	83.4394	0.899115	156.449
15.0095	7.49052	83.2552	0.898862	156.103
15.0349	7.48761	82.9572	0.898513	155.545
15.0604	7.48585	82.8012	0.898302	155.252
15.0859	7.48314	82.5407	0.897977	154.764
15.1114	7.48138	82.3669	0.897766	154.438
15.1368	7.47878	82.0909	0.897454	153.920
15.1623	7.47674	81.9116	0.897208	153.584
15.1878	7.47413	81.6775	0.896895	153.145
15.2132	7.47209	81.4682	0.896650	152.753
15.2387	7.46963	81.2299	0.896356	152.306
15.2642	7.46732	81.0179	0.896078	151.908
15.2897	7.46499	80.8154	0.895798	151.529
15.3151	7.46259	80.5875	0.895510	151.101
15.3406	7.46051	80.4013	0.895262	150.752
15.3661	7.45777	80.1273	0.894933	150.239
15.3916	7.45588	79.9542	0.894705	149.914
15.4170	7.45314	79.6644	0.894377	149.371
15.4425	7.45142	79.5084	0.894170	149.078
15.4680	7.44849	79.2511	0.893818	148.596
15.4934	7.44664	79.0933	0.893597	148.300
15.5189	7.44394	78.7996	0.893273	147.749
15.5444	7.44167	78.5724	0.893001	147.323
15.5699	7.43959	78.3626	0.892751	146.930
15.5953	7.43706	78.1225	0.892447	146.480
15.6208	7.43484	77.9571	0.892181	146.169
15.6463	7.43255	77.7383	0.891906	145.759
15.6717	7.43018	77.5018	0.891622	145.316
15.6972	7.42801	77.2863	0.891361	144.911
15.7227	7.42537	77.0497	0.891045	144.468
15.7482	7.42334	76.8336	0.890800	144.063
15.7736	7.42062	76.5774	0.890474	143.582
15.7991	7.41891	76.4159	0.890269	143.280
15.8246	7.41603	76.1550	0.889924	142.790
15.8501	7.41431	75.9978	0.889717	142.496
15.8755	7.41150	75.7049	0.889380	141.947
15.9010	7.40966	75.5475	0.889160	141.651
15.9265	7.40666	75.2758	0.888800	141.142
15.9519	7.40385	75.0012	0.888462	140.627
15.9774	7.40234	74.8435	0.888281	140.331
16.0029	7.39969	74.6188	0.887963	139.910
16.0284	7.39802	74.4403	0.887762	139.575
16.0538	7.39506	74.1595	0.887407	139.049
16.0793	7.39282	73.9490	0.887139	138.654
16.1048	7.39110	73.7763	0.886932	138.330
16.1303	7.38851	73.5298	0.886622	137.868
16.1557	7.38636	73.3405	0.886363	137.513
16.1812	7.38385	73.1157	0.886062	137.092
16.2067	7.38099	72.8230	0.885719	136.543
16.2321	7.37933	72.6664	0.885520	136.249
16.2576	7.37685	72.4447	0.885221	135.834
16.2831	7.37481	72.2452	0.884977	135.460
16.3086	7.37217	72.0056	0.884661	135.010
16.3340	7.37034	71.8342	0.884441	134.689
16.3595	7.36751	71.5815	0.884101	134.215
16.3850	7.36577	71.3849	0.883892	133.846
16.4105	7.36290	71.1251	0.883548	133.359
16.4359	7.36051	70.9110	0.883261	132.958
16.4614	7.35843	70.7197	0.883011	132.599
16.4869	7.35597	70.5137	0.882716	132.213
16.5123	7.35392	70.2977	0.882470	131.808
16.5378	7.35115	70.0473	0.882138	131.338
16.5633	7.34933	69.8829	0.881920	131.030
16.5888	7.34713	69.6764	0.881656	130.643
16.6142	7.34478	69.4379	0.881373	130.196
16.6397	7.34224	69.1770	0.881069	129.707
16.6652	7.33985	68.9604	0.880782	129.301
16.6906	7.33750	68.7526	0.880500	128.911
16.7161	7.33504	68.5204	0.880204	128.475
16.7416	7.33316	68.2998	0.879980	128.062
16.7671	7.33057	68.0851	0.879669	127.659
16.7925	7.32859	67.9170	0.879431	127.344
16.8180	7.32558	67.6247	0.879070	126.796
16.8435	7.32385	67.4400	0.878862	126.450
16.8690	7.32105	67.1809	0.878526	125.964
16.8944	7.31943	67.0430	0.878332	125.705
16.9199	7.31669	66.7697	0.878003	125.193
16.9454	7.31478	66.6124	0.877773	124.898
16.9708	7.31184	66.3341	0.877421	124.376
16.9963	7.30983	66.1492	0.877179	124.030
17.0218	7.30751	65.9178	0.876901	123.596
17.0473	7.30529	65.7190	0.876635	123.223
17.0727	7.30286	65.5025	0.876344	122.817
17.0982	7.30074	65.3004	0.876089	122.438
17.1237	7.29853	65.0838	0.875824	122.032
17.1492	7.29539	64.7889	0.875447	121.479
17.1746	7.29371	64.5877	0.875245	121.102
17.2001	7.29107	64.3565	0.874929	120.668
17.2256	7.28913	64.1841	0.874696	120.345
17.2510	7.28669	63.9522	0.874403	119.910
17.2765	7.28437	63.7369	0.874124	119.507
17.3020	7.28186	63.5024	0.873823	119.067
17.3275	7.27956	63.3023	0.873548	118.692
17.3529	7.27765	63.1176	0.873318	118.345
17.3784	7.27512	62.8790	0.873015	117.898
17.4039	7.27315	62.6653	0.872778	117.497
17.4293	7.27025	62.4075	0.872430	117.014
17.4548	7.26840	62.2152	0.872208	116.653
17.4803	7.26571	61.9878	0.871885	116.227
17.5058	7.26402	61.8306	0.871683	115.932
17.5312	7.26116	61.5610	0.871339	115.427
17.5567	7.25947	61.3801	0.871136	115.087
17.5822	7.25663	61.1204	0.870795	114.601
17.6077	7.25475	60.9589	0.870570	114.298
17.6331	7.25232	60.7274	0.870279	113.864
17.6586	7.24953	60.4513	0.869943	113.346
17.6841	7.24764	60.2650	0.869717	112.997
17.7095	7.24469	59.9860	0.869363	112.474
17.7350	7.24308	59.8251	0.869170	112.172
17.7605	7.24014	59.5640	0.868817	111.682
17.7860	7.23856	59.4058	0.868627	111.386
17.8114	7.23578	59.1445	0.868293	110.896
17.8369	7.23385	58.9725	0.868061	110.573
17.8624	7.23095	58.7247	0.867715	110.109
17.8879	7.22896	58.5235	0.867475	109.731
17.9133	7.22656	58.3038	0.867187	109.319
17.9388	7.22444	58.1020	0.866933	108.941
17.9643	7.22205	57.8899	0.866646	108.543
17.9897	7.21950	57.6616	0.866340	108.115
18.0152	7.21737	57.4608	0.866085	107.739
18.0407	7.21477	57.1917	0.865773	107.234
18.0662	7.21294	57.0188	0.865553	106.910
18.0916	7.21007	56.7584	0.865208	106.422
18.1171	7.20820	56.5979	0.864984	106.121
18.1426	7.20596	56.3789	0.864715	105.710
18.1681	7.20353	56.1438	0.864423	105.269
18.1935	7.20117	55.9195	0.864141	104.849
18.2190	7.19854	55.6828	0.863824	104.405
18.2445	7.19664	55.4969	0.863596	104.057
18.2699	7.19389	55.2390	0.863267	103.573
18.2954	7.19225	55.0747	0.863070	103.265
18.3209	7.18944	54.8135	0.862732	102.775
18.3464	7.18755	54.6523	0.862506	102.473
18.3718	7.18475	54.3921	0.862171	101.985
18.3973	7.18312	54.1963	0.861974	101.618
18.4228	7.18030	53.9531	0.861636	101.162
18.4482	7.17825	53.7842	0.861389	100.845
18.4737	7.17571	53.5180	0.861085	100.346
18.4992	7.17359	53.3159	0.860831	99.9672
18.5247	7.17115	53.0979	0.860537	99.5584
18.5501	7.16882	52.8547	0.860258	99.1024
18.5756	7.16673	52.6770	0.860008	98.7692
18.6011	7.16423	52.4397	0.859708	98.3243
18.6266	7.16220	52.2596	0.859463	97.9867
18.6520	7.15990	52.0279	0.859188	97.5522
18.6775	7.15762	51.8166	0.858915	97.1559
18.7030	7.15514	51.5804	0.858617	96.7131
18.7284	7.15281	51.4213	0.858337	96.4148
18.7539	7.15042	51.2250	0.858050	96.0468
18.7794	7.14799	50.9476	0.857759	95.5266
18.8049	7.14588	50.7384	0.857506	95.1343
18.8303	7.14322	50.5170	0.857187	94.7193
18.8558	7.14151	50.3343	0.856981	94.3766
18.8813	7.13856	50.0563	0.856628	93.8554
18.9068	7.13698	49.9207	0.856437	93.6012
18.9322	7.13404	49.6377	0.856085	93.0705
18.9577	7.13231	49.4789	0.855877	92.7728
18.9832	7.12952	49.2191	0.855543	92.2857
19.0086	7.12769	49.0535	0.855323	91.9752
19.0341	7.12502	48.8016	0.855002	91.5028
19.0596	7.12296	48.6166	0.854755	91.1560
19.0851	7.12052	48.3854	0.854462	90.7225
19.1105	7.11837	48.1708	0.854205	90.3202
19.1360	7.11600	47.9337	0.853920	89.8756
19.1615	7.11394	47.7592	0.853673	89.5483
19.1869	7.11184	47.5526	0.853420	89.1610
19.2124	7.10895	47.2860	0.853074	88.6611
19.2379	7.10714	47.1153	0.852857	88.3411
19.2634	7.10435	46.8629	0.852521	87.8678
19.2888	7.10234	46.6720	0.852280	87.5099
19.3143	7.09991	46.4410	0.851989	87.0767
19.3398	7.09767	46.2507	0.851721	86.7199
19.3653	7.09539	46.0560	0.851447	86.3549
19.3907	7.09302	45.8070	0.851162	85.8880
19.4162	7.09083	45.6046	0.850900	85.5085
19.4417	7.08824	45.3569	0.850588	85.0441
19.4671	7.08635	45.1848	0.850362	84.7213
19.4926	7.08341	44.9247	0.850010	84.2336
19.5181	7.08171	44.7659	0.849806	83.9358
19.5436	7.07885	44.5058	0.849461	83.4482
19.5690	7.07701	44.3482	0.849241	83.1528
19.5945	7.07430	44.0875	0.848916	82.6640
19.6200	7.07243	43.8931	0.848691	82.2994
19.6455	7.06968	43.6567	0.848362	81.8562
19.6709	7.06781	43.5026	0.848137	81.5673
19.6964	7.06530	43.2880	0.847837	81.1649
19.7219	7.06227	42.9934	0.847472	80.6125
19.7473	7.06054	42.8094	0.847265	80.2676
19.7728	7.05766	42.5372	0.846919	79.7571
19.7983	7.05593	42.3758	0.846711	79.4546
19.8238	7.05333	42.1167	0.846400	78.9687
19.8492	7.05143	41.9447	0.846171	78.6462
19.8747	7.04871	41.6986	0.845845	78.1847
19.9002	7.04661	41.5105	0.845593	77.8321
19.9257	7.04415	41.2506	0.845298	77.3447
19.9511	7.04191	41.0553	0.845029	76.9786
19.9766	7.03959	40.8600	0.844751	76.6124
20.0021	7.03709	40.6363	0.844451	76.1930
20.0275	7.03492	40.4416	0.844190	75.8280
20.0530	7.03222	40.1996	0.843866	75.3742
20.0785	7.03040	40.0231	0.843648	75.0431
20.1040	7.02764	39.7639	0.843317	74.5572
20.1294	7.02592	39.5811	0.843110	74.2144
20.1549	7.02294	39.3103	0.842752	73.7067
20.1804	7.02118	39.1491	0.842542	73.4044
20.2058	7.01891	38.9589	0.842269	73.0478
20.2313	7.01634	38.7285	0.841960	72.6157
20.2568	7.01420	38.5366	0.841704	72.2559
20.2823	7.01152	38.2532	0.841382	71.7247
20.3077	7.00972	38.0804	0.841166	71.4007
20.3332	7.00700	37.8481	0.840841	70.9650
20.3587	7.00527	37.6849	0.840633	70.6591
20.3842	7.00246	37.4345	0.840295	70.1896
20.4096	7.00078	37.2775	0.840093	69.8953
20.4351	6.99793	37.0180	0.839752	69.4087
20.4606	6.99617	36.8487	0.839540	69.0912
20.4860	6.99338	36.5659	0.839206	68.5609
20.5115	6.99127	36.3773	0.838953	68.2073
20.5370	6.98885	36.1494	0.838662	67.7799
20.5625	6.98671	35.9782	0.838405	67.4590
20.5879	6.98448	35.7645	0.838137	67.0584
20.6134	6.98201	35.5181	0.837842	66.5963
20.6389	6.97961	35.3037	0.837554	66.1943
20.6644	6.97691	35.0874	0.837229	65.7887
20.6898	6.97493	34.9261	0.836991	65.4863
20.7153	6.97223	34.6562	0.836667	64.9803
20.7408	6.97044	34.4847	0.836453	64.6588
20.7662	6.96798	34.2645	0.836157	64.2459
20.7917	6.96617	34.0574	0.835940	63.8574
20.8172	6.96329	33.8292	0.835595	63.4297
20.8427	6.96172	33.6725	0.835407	63.1358
20.8681	6.95909	33.4123	0.835091	62.6480
20.8936	6.95709	33.2408	0.834850	62.3265
20.9191	6.95410	32.9583	0.834492	61.7968
20.9445	6.95160	32.7350	0.834192	61.3781
20.9700	6.94926	32.5183	0.833911	60.9716
20.9955	6.94701	32.3137	0.833642	60.5881
21.0210	6.94484	32.1174	0.833381	60.2200
21.0464	6.94267	31.9001	0.833120	59.8126
21.0719	6.94037	31.7105	0.832844	59.4571
21.0974	6.93805	31.5198	0.832566	59.0996
21.1229	6.93574	31.3150	0.832289	58.7155
21.1483	6.93348	31.0983	0.832018	58.3093
21.1738	6.93129	30.8811	0.831754	57.9019
21.1993	6.92885	30.6642	0.831462	57.4953
21.2247	6.92674	30.4767	0.831209	57.1437
21.2502	6.92428	30.2585	0.830914	56.7346
21.2757	6.92160	30.0101	0.830592	56.2688
21.3012	6.91942	29.7990	0.830330	55.8731
21.3266	6.91710	29.6086	0.830052	55.5160
21.3521	6.91478	29.3910	0.829774	55.1081
21.3776	6.91238	29.1944	0.829486	54.7394
21.4031	6.91015	28.9914	0.829218	54.3588
21.4285	6.90804	28.7814	0.828964	53.9651
21.4540	6.90572	28.5909	0.828687	53.6079
21.4795	6.90341	28.4002	0.828409	53.2503
21.5049	6.90121	28.1880	0.828146	52.8525
21.5304	6.89896	27.9870	0.827875	52.4755
21.5559	6.89665	27.7868	0.827598	52.1001
21.5814	6.89434	27.5692	0.827321	51.6923
21.6068	6.89202	27.3505	0.827042	51.2822
21.6323	6.88972	27.1591	0.826766	50.9232
21.6578	6.88741	26.9690	0.826489	50.5667
21.6833	6.88516	26.7659	0.826219	50.1861
21.7087	6.88299	26.5550	0.825958	49.7905
21.7342	6.88081	26.3649	0.825698	49.4341
21.7597	6.87888	26.1827	0.825465	49.0925
21.7851	6.87633	25.9512	0.825159	48.6585
21.8106	6.87370	25.7109	0.824844	48.2078
21.8361	6.87140	25.4944	0.824568	47.8019
21.8616	6.86910	25.2767	0.824292	47.3938
21.8870	6.86693	25.0592	0.824031	46.9860
21.9125	6.86476	24.8901	0.823771	46.6689
21.9380	6.86250	24.6918	0.823499	46.2970
21.9634	6.86025	24.4862	0.823230	45.9115
21.9889	6.85805	24.2964	0.822966	45.5557
22.0144	6.85573	24.1050	0.822687	45.1969
22.0399	6.85355	23.9149	0.822426	44.8404
22.0653	6.85138	23.7045	0.822165	44.4458
22.0908	6.84913	23.5013	0.821896	44.0649
22.1163	6.84683	23.3035	0.821619	43.6940
22.1418	6.84452	23.0883	0.821343	43.2906
22.1672	6.84221	22.8976	0.821065	42.9329
22.1927	6.83990	22.6849	0.820788	42.5341
22.2182	6.83768	22.4841	0.820521	42.1576
22.2436	6.83550	22.2829	0.820259	41.7804
22.2691	6.83324	22.0668	0.819989	41.3751
22.2946	6.83062	21.8618	0.819675	40.9908
22.3201	6.82842	21.6582	0.819410	40.6090
22.3455	6.82620	21.4656	0.819144	40.2480
22.3710	6.82397	21.2762	0.818876	39.8927
22.3965	6.82179	21.0856	0.818614	39.5354
22.4220	6.81961	20.8953	0.818354	39.1786
22.4474	6.81744	20.7049	0.818092	38.8217
22.4729	6.81526	20.4931	0.817832	38.4245
22.4984	6.81301	20.2910	0.817561	38.0456
22.5238	6.81065	20.1004	0.817278	37.6883
22.5493	6.80824	19.9069	0.816988	37.3253
22.5748	6.80606	19.6891	0.816727	36.9170
22.6003	6.80389	19.4963	0.816466	36.5554
22.6257	6.80162	19.3061	0.816195	36.1989
22.6512	6.79938	19.1042	0.815925	35.8203
22.6767	6.79721	18.8932	0.815665	35.4246
22.7022	6.79503	18.7026	0.815404	35.0674
22.7276	6.79272	18.5122	0.815126	34.7103
22.7531	6.79041	18.2808	0.814849	34.2764
22.7786	6.78817	18.0651	0.814581	33.8720
22.8040	6.78607	17.8841	0.814328	33.5326
22.8295	6.78413	17.7243	0.814095	33.2331
22.8550	6.78141	17.4717	0.813769	32.7594
22.8805	6.77891	17.2938	0.813469	32.4259
22.9059	6.77664	17.1139	0.813196	32.0886
22.9314	6.77441	16.9022	0.812929	31.6915
22.9569	6.77212	16.6671	0.812655	31.2508
22.9823	6.76995	16.4765	0.812393	30.8933
23.0078	6.76789	16.2854	0.812147	30.5352
23.0333	6.76566	16.0955	0.811879	30.1790
23.0588	6.76342	15.8920	0.811610	29.7975
23.0842	6.76121	15.6819	0.811345	29.4036
23.1097	6.75891	15.4920	0.811069	29.0475
23.1352	6.75674	15.3019	0.810808	28.6911
23.1607	6.75456	15.0896	0.810548	28.2930
23.1861	6.75239	14.8882	0.810287	27.9154
23.2116	6.75016	14.6978	0.810020	27.5583
23.2371	6.74784	14.5029	0.809741	27.1929
23.2625	6.74550	14.2827	0.809460	26.7800
23.2880	6.74346	14.1168	0.809215	26.4690
23.3135	6.74132	13.9424	0.808959	26.1419
23.3390	6.73920	13.7529	0.808703	25.7867
23.3644	6.73721	13.5547	0.808466	25.4151
23.3899	6.73524	13.4045	0.808229	25.1334
23.4154	6.73323	13.2213	0.807988	24.7898
23.4409	6.73080	13.0159	0.807696	24.4048
23.4663	6.72880	12.8450	0.807456	24.0844
23.4918	6.72573	12.5734	0.807088	23.5752
23.5173	6.72352	12.3810	0.806823	23.2143
23.5427	6.72144	12.1942	0.806573	22.8641
23.5682	6.71904	12.0101	0.806285	22.5189
23.5937	6.71700	11.8329	0.806040	22.1866
23.6192	6.71544	11.6612	0.805853	21.8647
23.6446	6.71269	11.4353	0.805522	21.4412
23.6701	6.71070	11.2445	0.805284	21.0833
23.6956	6.70875	11.0503	0.805050	20.7192
23.7210	6.70716	10.9192	0.804859	20.4735
23.7465	6.70527	10.7571	0.804632	20.1696
23.7720	6.70318	10.5617	0.804382	19.8031
23.7975	6.70074	10.3237	0.804088	19.3568
23.8229	6.69880	10.1485	0.803856	19.0285
23.8484	6.69655	9.96533	0.803586	18.6850
23.8739	6.69433	9.77310	0.803320	18.3245
23.8994	6.69232	9.56489	0.803078	17.9341
23.9248	6.69061	9.41115	0.802873	17.6459
23.9503	6.68875	9.22508	0.802650	17.2970
23.9758	6.68719	9.08528	0.802462	17.0349
24.0012	6.68544	8.90072	0.802253	16.6888
24.0267	6.68307	8.70571	0.801969	16.3232
24.0522	6.68130	8.53902	0.801756	16.0106
24.0777	6.67940	8.37293	0.801529	15.6992
24.1031	6.67713	8.15698	0.801255	15.2943
24.1286	6.67547	8.04256	0.801057	15.0798
24.1541	6.67386	7.88703	0.800863	14.7882
24.1796	6.67129	7.64584	0.800555	14.3359
24.2050	6.66942	7.45746	0.800331	13.9827
24.2305	6.66786	7.31314	0.800144	13.7121
24.2560	6.66577	7.14461	0.799892	13.3961
24.2814	6.66378	6.94626	0.799654	13.0242
24.3069	6.66122	6.70494	0.799346	12.5717
24.3324	6.65931	6.54089	0.799117	12.2641
24.3579	6.65764	6.41478	0.798917	12.0277
24.3833	6.65606	6.29831	0.798727	11.8093
24.4088	6.65376	6.07614	0.798451	11.3927
24.4343	6.65157	5.86625	0.798188	10.9992
24.4598	6.64985	5.71462	0.797982	10.7149
24.4852	6.64811	5.53217	0.797773	10.3728
24.5107	6.64616	5.35923	0.797539	10.0485
24.5362	6.64424	5.19668	0.797309	9.74375
24.5616	6.64242	5.03375	0.797091	9.43827
24.5871	6.64038	4.87077	0.796846	9.13268
24.6126	6.63851	4.68421	0.796621	8.78288
24.6381	6.63660	4.51322	0.796392	8.46228
24.6635	6.63470	4.35007	0.796163	8.15636
24.6890	6.63281	4.18821	0.795937	7.85288
24.7145	6.63091	4.02529	0.795709	7.54740
24.7399	6.62900	3.86147	0.795479	7.24024
24.7654	6.62710	3.69869	0.795252	6.93504
24.7909	6.62528	3.55242	0.795034	6.66077
24.8164	6.62346	3.39564	0.794815	6.36682
24.8418	6.62155	3.20672	0.794585	6.01259
24.8673	6.61977	3.04326	0.794373	5.70610
24.8928	6.61774	2.86194	0.794129	5.36612
24.9183	6.61595	2.70251	0.793913	5.06721
24.9437	6.61431	2.55435	0.793717	4.78940
24.9692	6.61254	2.39113	0.793505	4.48335
24.9947	6.61077	2.22827	0.793292	4.17801
25.0201	6.60902	2.09353	0.793082	3.92537
25.0456	6.60714	1.93551	0.792856	3.62908
25.0711	6.60539	1.78802	0.792647	3.35253
25.0966	6.60367	1.65229	0.792440	3.09804
25.1220	6.60176	1.51311	0.792212	2.83707
25.1475	6.59987	1.35059	0.791984	2.53234
25.1730	6.59784	1.23572	0.791740	2.31697
25.1985	6.59570	1.12671	0.791484	2.11258
25.2239	6.59358	1.00557	0.791230	1.88545
25.2494	6.59148	0.881792	0.790978	1.65336
25.2749	6.58919	0.800739	0.790703	1.50138
25.3003	6.58714	0.719107	0.790457	1.34832
25.3258	6.58490	0.637574	0.790188	1.19545
25.3513	6.58266	0.541420	0.789919	1.01516
25.3768	6.58049	0.441211	0.789659	0.827270
25.4022	6.57827	0.360731	0.789393	0.676369
25.4277	6.57562	0.291417	0.789074	0.546405
25.4532	6.57347	0.223145	0.788816	0.418397
25.4786	6.57113	0.146265	0.788536	0.274247
25.5041	6.56867	0.0764832	0.788240	0.143406
25.5551	6.56383	0.00000	0.787660	0.00000