Time (sec)	Position (Flex Unit) (mm)	Force (N)	Strain (%)	Stress (MPa)
0.178616	6.55367	0.700000	0.786440	1.31250
0.208509	6.55411	0.717710	0.786493	1.34570
0.238402	6.55555	0.733333	0.786665	1.37500
0.268295	6.55782	0.747750	0.786938	1.40203
0.298188	6.56050	0.766667	0.787260	1.43750
0.328081	6.56343	0.778221	0.787612	1.45916
0.357974	6.56636	0.810130	0.787963	1.51899
0.387867	6.56909	0.833333	0.788291	1.56250
0.417760	6.57185	0.840919	0.788622	1.57672
0.447654	6.57469	0.872535	0.788963	1.63600
0.477547	6.57752	0.900000	0.789302	1.68750
0.507440	6.58020	0.910874	0.789624	1.70789
0.537333	6.58307	0.945613	0.789968	1.77302
0.567226	6.58566	0.946184	0.790280	1.77409
0.597119	6.58837	0.962100	0.790604	1.80394
0.627012	6.59132	1.00000	0.790958	1.87500
0.656905	6.59407	1.00000	0.791289	1.87500
0.686798	6.59694	1.02302	0.791633	1.91815
0.716692	6.59955	1.06471	0.791946	1.99633
0.746585	6.60231	1.10000	0.792277	2.06250
0.776478	6.60505	1.10000	0.792606	2.06250
0.806371	6.60776	1.12450	0.792931	2.10844
0.836264	6.61066	1.16658	0.793279	2.18734
0.866157	6.61352	1.16667	0.793622	2.18750
0.896050	6.61612	1.16667	0.793934	2.18750
0.925943	6.61902	1.19308	0.794282	2.23702
0.955836	6.62174	1.23333	0.794608	2.31250
0.985730	6.62462	1.23990	0.794955	2.32482
1.01562	6.62735	1.26667	0.795281	2.37500
1.04552	6.63056	1.26667	0.795667	2.37500
1.07541	6.63308	1.29861	0.795970	2.43489
1.10530	6.63594	1.33081	0.796313	2.49526
1.13520	6.63882	1.33333	0.796658	2.50000
1.16509	6.64154	1.33333	0.796985	2.50000
1.19498	6.64429	1.38732	0.797315	2.60123
1.22487	6.64704	1.40000	0.797644	2.62500
1.25477	6.64985	1.42429	0.797982	2.67054
1.28466	6.65282	1.43333	0.798339	2.68750
1.31455	6.65560	1.45418	0.798673	2.72657
1.34445	6.65820	1.48584	0.798984	2.78595
1.37434	6.66085	1.48221	0.799301	2.77915
1.40423	6.66361	1.48270	0.799633	2.78007
1.43413	6.66636	1.51407	0.799963	2.83887
1.46402	6.66906	1.54577	0.800287	2.89832
1.49391	6.67177	1.56667	0.800612	2.93750
1.52381	6.67427	1.56667	0.800913	2.93750
1.55370	6.67732	1.58789	0.801278	2.97729
1.58359	6.68000	1.62121	0.801600	3.03977
1.61348	6.68277	1.63333	0.801933	3.06250
1.64338	6.68529	1.63866	0.802234	3.07249
1.67327	6.68792	1.66936	0.802551	3.13005
1.70316	6.69091	1.70000	0.802909	3.18750
1.73306	6.69330	1.71722	0.803196	3.21978
1.76295	6.69626	1.73333	0.803552	3.25000
1.79284	6.69916	1.74696	0.803899	3.27554
1.82274	6.70187	1.77888	0.804225	3.33540
1.85263	6.70463	1.80000	0.804556	3.37499
1.88252	6.70744	1.80000	0.804893	3.37499
1.91242	6.71013	1.80745	0.805216	3.38896
1.94231	6.71279	1.84101	0.805535	3.45190
1.97220	6.71528	1.85210	0.805834	3.47268
2.00210	6.71760	1.86667	0.806112	3.49999
2.03199	6.71957	1.88307	0.806349	3.53075
2.06188	6.72291	1.90000	0.806749	3.56249
2.09177	6.72633	1.94125	0.807160	3.63983
2.12167	6.72950	1.96667	0.807540	3.68749
2.15156	6.73210	1.96667	0.807852	3.68749
2.18145	6.73512	1.96982	0.808214	3.69341
2.21135	6.73798	2.00172	0.808558	3.75323
2.24124	6.74068	2.03367	0.808881	3.81313
2.27113	6.74311	2.06667	0.809174	3.87499
2.30103	6.74558	2.06667	0.809470	3.87499
2.33092	6.74862	2.06667	0.809834	3.87499
2.36081	6.75163	2.09431	0.810195	3.92682
2.39071	6.75416	2.13333	0.810499	3.99999
2.42060	6.75687	2.13333	0.810824	3.99999
2.45049	6.75960	2.15715	0.811152	4.04465
2.48039	6.76259	2.18865	0.811511	4.10371
2.51028	6.76495	2.20000	0.811795	4.12499
2.54017	6.76624	2.20000	0.811949	4.12499
2.57006	6.76907	2.20107	0.812288	4.12701
2.59996	6.77278	2.23333	0.812733	4.18749
2.62985	6.77537	2.26667	0.813045	4.24999
2.65974	6.77854	2.26667	0.813425	4.24999
2.68964	6.78129	2.29456	0.813754	4.30229
2.71953	6.78435	2.30000	0.814122	4.31249
2.74942	6.78665	2.33333	0.814398	4.37499
2.77932	6.78946	2.33333	0.814735	4.37499
2.80921	6.79203	2.38002	0.815044	4.46254
2.83910	6.79505	2.40000	0.815406	4.49999
2.86900	6.79746	2.43333	0.815695	4.56249
2.89889	6.80051	2.43611	0.816062	4.56769
2.92878	6.80378	2.46667	0.816454	4.62499
2.95867	6.80613	2.46667	0.816736	4.62499
2.98857	6.80875	2.48253	0.817050	4.65473
3.01846	6.81217	2.50000	0.817460	4.68749
3.04835	6.81479	2.53333	0.817775	4.74999
3.07825	6.81752	2.53333	0.818103	4.74999
3.10814	6.81992	2.53333	0.818390	4.74999
3.13803	6.82256	2.53995	0.818708	4.76239
3.16793	6.82514	2.57337	0.819016	4.82505
3.19782	6.82888	2.61977	0.819465	4.91206
3.22771	6.83134	2.63333	0.819761	4.93749
3.25761	6.83361	2.63333	0.820033	4.93749
3.28750	6.83680	2.66667	0.820417	4.99999
3.31739	6.83900	2.67149	0.820680	5.00904
3.34729	6.84235	2.70514	0.821082	5.07213
3.37718	6.84479	2.73546	0.821374	5.12898
3.40707	6.84831	2.76156	0.821797	5.17793
3.43696	6.85069	2.76667	0.822083	5.18749
3.46686	6.85339	2.76667	0.822407	5.18749
3.49675	6.85605	2.78948	0.822726	5.23027
3.52664	6.85850	2.80501	0.823020	5.25939
3.55654	6.86156	2.83333	0.823387	5.31249
3.58643	6.86387	2.83333	0.823664	5.31249
3.61632	6.86734	2.86667	0.824081	5.37499
3.64622	6.87002	2.86667	0.824403	5.37499
3.67611	6.87191	2.86667	0.824629	5.37499
3.70600	6.87506	2.89583	0.825008	5.42968
3.73590	6.87769	2.92450	0.825323	5.48342
3.76579	6.88064	2.95976	0.825677	5.54955
3.79568	6.88314	2.96667	0.825977	5.56249
3.82558	6.88614	2.98532	0.826337	5.59746
3.85547	6.88900	3.00000	0.826680	5.62499
3.88536	6.89190	3.03333	0.827028	5.68749
3.91525	6.89549	3.03333	0.827458	5.68749
3.94515	6.89758	3.03578	0.827709	5.69208
3.97504	6.90063	3.06627	0.828075	5.74925
4.00493	6.90264	3.09924	0.828317	5.81106
4.03483	6.90631	3.13307	0.828758	5.87449
4.06472	6.90879	3.14767	0.829055	5.90187
4.09461	6.91117	3.16667	0.829341	5.93749
4.12451	6.91352	3.18916	0.829622	5.97967
4.15440	6.91762	3.20000	0.830114	5.99999
4.18429	6.91963	3.22360	0.830355	6.04424
4.21419	6.92246	3.22123	0.830695	6.03980
4.24408	6.92510	3.23333	0.831012	6.06249
4.27397	6.92745	3.24189	0.831294	6.07853
4.30386	6.93054	3.30000	0.831665	6.18749
4.33376	6.93385	3.33333	0.832061	6.24999
4.36365	6.93659	3.33333	0.832391	6.24999
4.39354	6.93961	3.33333	0.832753	6.24999
4.42344	6.94233	3.36271	0.833080	6.30508
4.45333	6.94519	3.36667	0.833423	6.31249
4.48322	6.94806	3.36667	0.833767	6.31249
4.51312	6.95068	3.41692	0.834081	6.40671
4.54301	6.95347	3.43333	0.834416	6.43749
4.57290	6.95624	3.43333	0.834749	6.43749
4.60280	6.95895	3.45429	0.835074	6.47679
4.63269	6.96175	3.48610	0.835410	6.53643
4.66258	6.96428	3.50000	0.835714	6.56249
4.69248	6.96698	3.51270	0.836037	6.58630
4.72237	6.97021	3.53333	0.836425	6.62499
4.75226	6.97306	3.54699	0.836767	6.65059
4.78215	6.97581	3.56667	0.837097	6.68749
4.81205	6.97842	3.57751	0.837411	6.70782
4.84194	6.98119	3.60946	0.837742	6.76774
4.87183	6.98396	3.63333	0.838076	6.81249
4.90173	6.98659	3.63989	0.838391	6.82479
4.93162	6.98942	3.66667	0.838730	6.87499
4.96151	6.99210	3.66984	0.839052	6.88093
4.99141	6.99484	3.70210	0.839381	6.94142
5.02130	6.99756	3.73333	0.839708	6.99999
5.05119	7.00027	3.73333	0.840032	6.99999
5.08109	7.00316	3.76472	0.840379	7.05884
5.11098	7.00601	3.76667	0.840722	7.06249
5.14087	7.00888	3.79497	0.841066	7.11556
5.17077	7.01148	3.82680	0.841377	7.17523
5.20066	7.01456	3.83333	0.841747	7.18749
5.23055	7.01743	3.83333	0.842092	7.18749
5.26044	7.02020	3.85592	0.842424	7.22984
5.29034	7.02296	3.88781	0.842756	7.28963
5.32023	7.02569	3.90000	0.843083	7.31249
5.35012	7.02848	3.90000	0.843418	7.31249
5.38002	7.03126	3.91677	0.843751	7.34393
5.40991	7.03397	3.94869	0.844077	7.40377
5.43980	7.03668	3.96667	0.844402	7.43749
5.46970	7.03946	3.97917	0.844735	7.46093
5.49959	7.04227	4.00000	0.845073	7.49999
5.52948	7.04504	4.00967	0.845404	7.51813
5.55938	7.04787	4.04163	0.845745	7.57805
5.58927	7.05059	4.07358	0.846071	7.63795
5.61916	7.05328	4.10000	0.846394	7.68749
5.64905	7.05601	4.10383	0.846721	7.69467
5.67895	7.05888	4.13574	0.847066	7.75450
5.70884	7.06173	4.16667	0.847408	7.81249
5.73873	7.06401	4.16667	0.847681	7.81249
5.76863	7.06732	4.16667	0.848078	7.81249
5.79852	7.07035	4.19671	0.848443	7.86882
5.82841	7.07312	4.22885	0.848774	7.92908
5.85831	7.07595	4.23333	0.849114	7.93749
5.88820	7.07881	4.25903	0.849458	7.98566
5.91809	7.08144	4.26667	0.849773	7.99999
5.94799	7.08422	4.26667	0.850106	7.99999
5.97788	7.08698	4.28800	0.850438	8.03999
6.00777	7.08969	4.30000	0.850763	8.06249
6.03767	7.09250	4.31851	0.851100	8.09720
6.06756	7.09530	4.35057	0.851436	8.15731
6.09745	7.09808	4.38241	0.851770	8.21701
6.12734	7.10087	4.40000	0.852104	8.24999
6.15724	7.10358	4.40000	0.852430	8.24999
6.18713	7.10629	4.41122	0.852754	8.27102
6.21702	7.10900	4.44311	0.853080	8.33082
6.24692	7.11159	4.47363	0.853391	8.38803
6.27681	7.11390	4.50000	0.853668	8.43749
6.30670	7.11752	4.50577	0.854102	8.44830
6.33660	7.12035	4.53770	0.854442	8.50817
6.36649	7.12283	4.56667	0.854740	8.56249
6.39638	7.12531	4.56667	0.855037	8.56249
6.42628	7.12814	4.58303	0.855377	8.59317
6.45617	7.13101	4.61495	0.855721	8.65302
6.48606	7.13388	4.63333	0.856066	8.68749
6.51596	7.13663	4.63333	0.856396	8.68749
6.54585	7.13935	4.64405	0.856722	8.70758
6.57574	7.14225	4.67599	0.857070	8.76747
6.60563	7.14483	4.69224	0.857379	8.79794
6.63553	7.14757	4.67299	0.857708	8.76184
6.66542	7.15044	4.70484	0.858052	8.82156
6.69531	7.15330	4.73333	0.858395	8.87499
6.72521	7.15602	4.73333	0.858722	8.87499
6.75510	7.15887	4.73429	0.859065	8.87679
6.78499	7.16114	4.78760	0.859337	8.97673
6.81489	7.16436	4.80000	0.859723	8.99999
6.84478	7.16717	4.82947	0.860061	9.05523
6.87467	7.16988	4.86137	0.860386	9.11506
6.90457	7.17273	4.86667	0.860728	9.12499
6.93446	7.17561	4.89191	0.861073	9.17233
6.96435	7.17836	4.90000	0.861403	9.18749
6.99424	7.18095	4.90000	0.861714	9.18749
7.02414	7.18361	4.94180	0.862033	9.26585
7.05403	7.18633	4.98629	0.862360	9.34927
7.08392	7.18913	4.98185	0.862696	9.34096
7.11382	7.19200	4.96667	0.863040	9.31249
7.14371	7.19479	4.98186	0.863375	9.34096
7.17360	7.19757	5.01375	0.863708	9.40076
7.20350	7.20038	5.04569	0.864046	9.46066
7.23339	7.20315	5.06667	0.864378	9.49999
7.26328	7.20596	5.07602	0.864715	9.51753
7.29318	7.20857	5.10674	0.865029	9.57512
7.32307	7.21088	5.13381	0.865305	9.62588
7.35296	7.21449	5.16667	0.865738	9.68749
7.38286	7.21731	5.16667	0.866077	9.68749
7.41275	7.22002	5.16887	0.866402	9.69161
7.44264	7.22272	5.20066	0.866727	9.75123
7.47253	7.22545	5.23269	0.867053	9.81128
7.50243	7.22831	5.23333	0.867397	9.81249
7.53232	7.23104	5.26320	0.867725	9.86848
7.56221	7.23377	5.26667	0.868053	9.87499
7.59211	7.23647	5.29375	0.868376	9.92577
7.62200	7.23917	5.30000	0.868700	9.93748
7.65189	7.24211	5.32396	0.869053	9.98242
7.68179	7.24503	5.33333	0.869403	9.99998
7.71168	7.24779	5.35444	0.869735	10.0396
7.74157	7.25051	5.38637	0.870061	10.0994
7.77147	7.25322	5.40000	0.870386	10.1250
7.80136	7.25603	5.41701	0.870724	10.1569
7.83125	7.25906	5.44636	0.871088	10.2119
7.86115	7.26206	5.46667	0.871447	10.2500
7.89104	7.26458	5.47931	0.871749	10.2737
7.92093	7.26727	5.51107	0.872073	10.3332
7.95082	7.26999	5.53333	0.872398	10.3750
7.98072	7.27274	5.53333	0.872729	10.3750
8.01061	7.27558	5.54011	0.873069	10.3877
8.04050	7.27830	5.57210	0.873395	10.4477
8.07040	7.28102	5.60420	0.873723	10.5079
8.10029	7.28371	5.63333	0.874046	10.5625
8.13018	7.28658	5.63425	0.874389	10.5642
8.16008	7.28933	5.66658	0.874719	10.6248
8.18997	7.29201	5.69814	0.875041	10.6840
8.21986	7.29487	5.70000	0.875384	10.6875
8.24976	7.29760	5.72861	0.875712	10.7411
8.27965	7.30044	5.76047	0.876053	10.8009
8.30954	7.30321	5.76667	0.876385	10.8125
8.33943	7.30603	5.79102	0.876723	10.8581
8.36933	7.30855	5.81911	0.877026	10.9108
8.39922	7.31152	5.83333	0.877382	10.9375
8.42911	7.31444	5.85339	0.877732	10.9751
8.45901	7.31725	5.88514	0.878071	11.0346
8.48890	7.32011	5.90000	0.878414	11.0625
8.51879	7.32283	5.91560	0.878739	11.0917
8.54869	7.32569	5.94761	0.879083	11.1518
8.57858	7.32859	5.96667	0.879431	11.1875
8.60847	7.33135	5.97796	0.879762	11.2087
8.63837	7.33416	5.99022	0.880100	11.2316
8.66826	7.33688	5.98337	0.880425	11.2188
8.69815	7.33962	6.04026	0.880755	11.3255
8.72805	7.34249	6.06667	0.881098	11.3750
8.75794	7.34536	6.07072	0.881444	11.3826
8.78783	7.34824	6.10000	0.881789	11.4375
8.81772	7.35097	6.10000	0.882116	11.4375
8.84762	7.35382	6.10000	0.882458	11.4375
8.87751	7.35668	6.16315	0.882801	11.5559
8.90740	7.35974	6.16667	0.883168	11.5625
8.93730	7.36228	6.19352	0.883473	11.6128
8.96719	7.36511	6.20000	0.883813	11.6250
8.99708	7.36773	6.22585	0.884128	11.6735
9.02698	7.37053	6.23333	0.884464	11.6875
9.05687	7.37331	6.25658	0.884797	11.7311
9.08676	7.37612	6.26667	0.885135	11.7500
9.11666	7.37888	6.30702	0.885466	11.8257
9.14655	7.38178	6.33333	0.885813	11.8750
9.17644	7.38463	6.35060	0.886156	11.9074
9.20633	7.38735	6.36667	0.886482	11.9375
9.23623	7.39013	6.36667	0.886816	11.9375
9.26612	7.39294	6.37969	0.887153	11.9619
9.29601	7.39571	6.41160	0.887485	12.0217
9.32591	7.39854	6.43333	0.887824	12.0625
9.35580	7.40123	6.44197	0.888148	12.0787
9.38569	7.40397	6.46667	0.888477	12.1250
9.41559	7.40690	6.47142	0.888828	12.1339
9.44548	7.41010	6.49808	0.889212	12.1839
9.47537	7.41243	6.53333	0.889492	12.2500
9.50527	7.41514	6.53476	0.889816	12.2527
9.53516	7.41817	6.56666	0.890180	12.3125
9.56505	7.42089	6.59872	0.890507	12.3726
9.59495	7.42374	6.60000	0.890849	12.3750
9.62484	7.42647	6.62902	0.891176	12.4294
9.65473	7.42945	6.66089	0.891534	12.4892
9.68462	7.43222	6.69282	0.891867	12.5490
9.71452	7.43493	6.70000	0.892192	12.5625
9.74441	7.43765	6.70000	0.892518	12.5625
9.77430	7.44058	6.72186	0.892869	12.6035
9.80420	7.44341	6.75387	0.893209	12.6635
9.83409	7.44611	6.76667	0.893533	12.6875
9.86398	7.44881	6.78408	0.893858	12.7201
9.89388	7.45153	6.81603	0.894184	12.7800
9.92377	7.45432	6.83333	0.894518	12.8125
9.95366	7.45711	6.84442	0.894853	12.8333
9.98356	7.45979	6.87326	0.895175	12.8873
10.0134	7.46264	6.91023	0.895517	12.9567
10.0433	7.46559	6.94227	0.895871	13.0167
10.0732	7.46834	6.97417	0.896201	13.0765
10.1031	7.47120	7.00000	0.896544	13.1250
10.1330	7.47405	7.00455	0.896886	13.1335
10.1629	7.47677	7.03647	0.897212	13.1934
10.1928	7.47948	7.06667	0.897538	13.2500
10.2227	7.48235	7.06687	0.897882	13.2504
10.2526	7.48522	7.09879	0.898227	13.3102
10.2825	7.48810	7.13069	0.898571	13.3700
10.3124	7.49099	7.13333	0.898919	13.3750
10.3423	7.49398	7.16115	0.899277	13.4271
10.3722	7.49688	7.16667	0.899625	13.4375
10.4021	7.49962	7.19164	0.899955	13.4843
10.4320	7.50245	7.22348	0.900294	13.5440
10.4618	7.50527	7.23333	0.900633	13.5625
10.4917	7.50828	7.23333	0.900994	13.5625
10.5216	7.51111	7.24907	0.901333	13.5920
10.5515	7.51396	7.28460	0.901675	13.6586
10.5814	7.51690	7.31648	0.902028	13.7184
10.6113	7.51960	7.31848	0.902352	13.7221
10.6412	7.52231	7.31341	0.902677	13.7126
10.6711	7.52502	7.33333	0.903002	13.7500
10.7010	7.52778	7.34386	0.903334	13.7697
10.7309	7.53065	7.37572	0.903678	13.8295
10.7608	7.53348	7.40000	0.904018	13.8750
10.7907	7.53621	7.40000	0.904345	13.8750
10.8206	7.53895	7.40504	0.904674	13.8844
10.8505	7.54182	7.43333	0.905018	13.9375
10.8803	7.54483	7.43514	0.905379	13.9409
10.9102	7.54770	7.46667	0.905723	14.0000
10.9401	7.55040	7.46667	0.906048	14.0000
10.9700	7.55329	7.49766	0.906395	14.0581
10.9999	7.55615	7.50000	0.906738	14.0625
11.0298	7.55850	7.52350	0.907020	14.1065
11.0597	7.56160	7.55855	0.907392	14.1723
11.0896	7.56473	7.59189	0.907768	14.2348
11.1195	7.56740	7.60000	0.908088	14.2500
11.1494	7.57017	7.62224	0.908420	14.2917
11.1793	7.57304	7.65418	0.908765	14.3516
11.2092	7.57582	7.68607	0.909098	14.4114
11.2391	7.57852	7.70000	0.909423	14.4375
11.2690	7.58132	7.70000	0.909758	14.4375
11.2989	7.58420	7.73039	0.910104	14.4945
11.3287	7.58701	7.76667	0.910441	14.5625
11.3586	7.58970	7.77887	0.910764	14.5854
11.3885	7.59246	7.80000	0.911096	14.6250
11.4184	7.59529	7.80928	0.911435	14.6424
11.4483	7.59804	7.84114	0.911764	14.7021
11.4782	7.60087	7.86667	0.912105	14.7500
11.5081	7.60359	7.87163	0.912431	14.7593
11.5380	7.60627	7.90000	0.912753	14.8125
11.5679	7.60870	7.90000	0.913044	14.8125
11.5978	7.61192	7.93421	0.913430	14.8766
11.6277	7.61493	7.96590	0.913791	14.9360
11.6576	7.61764	7.99777	0.914117	14.9958
11.6875	7.62036	8.00000	0.914443	15.0000
11.7174	7.62335	8.02823	0.914802	15.0529
11.7472	7.62611	8.03333	0.915133	15.0625
11.7771	7.62882	8.03333	0.915459	15.0625
11.8070	7.63166	8.08144	0.915800	15.1527
11.8369	7.63430	8.10000	0.916116	15.1875
11.8668	7.63705	8.12095	0.916446	15.2267
11.8967	7.63983	8.15288	0.916779	15.2866
11.9266	7.64263	8.16667	0.917116	15.3125
11.9565	7.64551	8.18341	0.917461	15.3439
11.9864	7.64830	8.20000	0.917796	15.3750
12.0163	7.65108	8.21385	0.918130	15.4009
12.0462	7.65390	8.23333	0.918468	15.4375
12.0761	7.65674	8.24270	0.918809	15.4550
12.1060	7.65976	8.27061	0.919171	15.5074
12.1359	7.66241	8.30826	0.919489	15.5780
12.1658	7.66527	8.33333	0.919832	15.6250
12.1956	7.66814	8.33858	0.920177	15.6348
12.2255	7.67099	8.37044	0.920518	15.6945
12.2554	7.67373	8.40256	0.920848	15.7548
12.2853	7.67658	8.43333	0.921190	15.8125
12.3152	7.67931	8.43333	0.921517	15.8125
12.3451	7.68216	8.46479	0.921860	15.8715
12.3750	7.68502	8.46667	0.922202	15.8750
12.4049	7.68789	8.49509	0.922547	15.9283
12.4348	7.69063	8.52700	0.922875	15.9881
12.4647	7.69346	8.55878	0.923215	16.0477
12.4946	7.69621	8.56667	0.923545	16.0625
12.5245	7.69915	8.58931	0.923898	16.1049
12.5544	7.70210	8.60000	0.924252	16.1250
12.5843	7.70496	8.61993	0.924595	16.1623
12.6141	7.70748	8.63333	0.924897	16.1875
12.6440	7.71020	8.64665	0.925224	16.2124
12.6739	7.71341	8.68236	0.925609	16.2794
12.7038	7.71619	8.71401	0.925943	16.3387
12.7337	7.71890	8.73333	0.926268	16.3750
12.7636	7.72168	8.74458	0.926601	16.3961
12.7935	7.72452	8.77675	0.926943	16.4564
12.8234	7.72723	8.80000	0.927267	16.5000
12.8533	7.72995	8.80689	0.927594	16.5129
12.8832	7.73279	8.83333	0.927935	16.5625
12.9131	7.73552	8.83728	0.928263	16.5699
12.9430	7.73837	8.86909	0.928605	16.6295
12.9729	7.74110	8.90000	0.928932	16.6875
13.0028	7.74397	8.90000	0.929276	16.6875
13.0327	7.74684	8.93157	0.929621	16.7467
13.0625	7.74973	8.93333	0.929968	16.7500
13.0924	7.75258	8.99071	0.930310	16.8576
13.1223	7.75545	9.00000	0.930654	16.8750
13.1522	7.75795	9.00000	0.930954	16.8750
13.1821	7.76100	9.02228	0.931321	16.9167
13.2120	7.76395	9.03333	0.931674	16.9375
13.2419	7.76676	9.07620	0.932011	17.0179
13.2718	7.76974	9.10000	0.932369	17.0625
13.3017	7.77247	9.11733	0.932697	17.0950
13.3316	7.77470	9.13333	0.932964	17.1250
13.3615	7.77747	9.13333	0.933296	17.1250
13.3914	7.77975	9.13333	0.933570	17.1250
13.4213	7.78312	9.16667	0.933974	17.1875
13.4512	7.78564	9.20000	0.934276	17.2500
13.4810	7.78835	9.20000	0.934602	17.2500
13.5109	7.79139	9.23333	0.934966	17.3125
13.5408	7.79351	9.26667	0.935222	17.3750
13.5707	7.79679	9.26667	0.935615	17.3750
13.6006	7.79981	9.29489	0.935977	17.4279
13.6305	7.80218	9.33333	0.936262	17.5000
13.6604	7.80528	9.33333	0.936633	17.5000
13.6903	7.80795	9.33721	0.936954	17.5072
13.7202	7.81100	9.40000	0.937320	17.6250
13.7501	7.81321	9.40000	0.937585	17.6250
13.7800	7.81644	9.40000	0.937973	17.6250
13.8099	7.81936	9.43333	0.938323	17.6875
13.8398	7.82187	9.45119	0.938624	17.7209
13.8697	7.82499	9.46667	0.938999	17.7500
13.8996	7.82754	9.47670	0.939304	17.7688
13.9294	7.83055	9.50000	0.939666	17.8125
13.9593	7.83375	9.50226	0.940050	17.8167
13.9892	7.83593	9.53333	0.940312	17.8750
14.0191	7.83900	9.56667	0.940679	17.9375
14.0490	7.84188	9.59044	0.941025	17.9820
14.0789	7.84437	9.58668	0.941324	17.9750
14.1088	7.84765	9.61624	0.941718	18.0304
14.1387	7.85014	9.64572	0.942017	18.0857
14.1686	7.85293	9.66667	0.942351	18.1250
14.1985	7.85575	9.69444	0.942690	18.1770
14.2284	7.85897	9.70000	0.943076	18.1875
14.2583	7.86137	9.73333	0.943365	18.2500
14.2882	7.86450	9.75249	0.943740	18.2859
14.3181	7.86685	9.76667	0.944022	18.3125
14.3479	7.86967	9.80000	0.944361	18.3750
14.3778	7.87320	9.80106	0.944784	18.3770
14.4077	7.87525	9.83333	0.945030	18.4375
14.4376	7.87844	9.86667	0.945413	18.5000
14.4675	7.88116	9.88956	0.945739	18.5429
14.4974	7.88350	9.91910	0.946020	18.5983
14.5273	7.88687	9.93333	0.946424	18.6250
14.5572	7.88924	9.93333	0.946708	18.6250
14.5871	7.89210	9.96667	0.947052	18.6875
14.6469	7.89750	10.0000	0.947700	18.7500
14.6469	7.89750	10.0000	0.947700	18.7500
14.6763	7.90075	10.0309	0.948090	18.8080
14.7058	7.90379	10.0514	0.948455	18.8463
14.7352	7.90683	10.0709	0.948819	18.8829
14.7647	7.90986	10.0905	0.949183	18.9196
14.7942	7.91207	10.1000	0.949448	18.9375
14.8236	7.91315	10.0975	0.949578	18.9328
14.8531	7.91253	10.0356	0.949504	18.8168
14.8825	7.91023	10.0072	0.949228	18.7635
14.9120	7.90803	10.0000	0.948963	18.7500
14.9414	7.90459	9.95006	0.948550	18.6563
14.9709	7.90201	9.92154	0.948241	18.6029
15.0003	7.89909	9.90000	0.947891	18.5625
15.0298	7.89591	9.89779	0.947509	18.5583
15.0592	7.89359	9.86667	0.947230	18.5000
15.0887	7.89055	9.80720	0.946866	18.3885
15.1181	7.88756	9.77855	0.946507	18.3348
15.1476	7.88500	9.76667	0.946200	18.3125
15.1771	7.88191	9.72129	0.945829	18.2274
15.2065	7.87952	9.69267	0.945543	18.1737
15.2360	7.87659	9.63333	0.945191	18.0625
15.2654	7.87365	9.60227	0.944838	18.0042
15.2949	7.87158	9.60000	0.944590	18.0000
15.3243	7.86869	9.56667	0.944243	17.9375
15.3538	7.86535	9.53333	0.943843	17.8750
15.3832	7.86319	9.53333	0.943583	17.8750
15.4127	7.86000	9.50000	0.943200	17.8125
15.4421	7.85706	9.46667	0.942847	17.7500
15.4716	7.85462	9.44834	0.942554	17.7156
15.5010	7.85153	9.43333	0.942183	17.6875
15.5305	7.84847	9.42688	0.941817	17.6754
15.5600	7.84654	9.40000	0.941585	17.6250
15.5894	7.84343	9.40000	0.941212	17.6250
15.6189	7.84037	9.37433	0.940844	17.5768
15.6483	7.83803	9.34554	0.940564	17.5229
15.6778	7.83493	9.28366	0.940191	17.4068
15.7072	7.83242	9.26667	0.939891	17.3750
15.7367	7.82960	9.26667	0.939552	17.3750
15.7661	7.82626	9.23333	0.939151	17.3125
15.7956	7.82425	9.20267	0.938910	17.2550
15.8250	7.82087	9.20000	0.938505	17.2500
15.8545	7.81858	9.20000	0.938229	17.2500
15.8840	7.81537	9.19624	0.937844	17.2429
15.9134	7.81321	9.16667	0.937585	17.1875
15.9429	7.81020	9.13333	0.937224	17.1250
15.9723	7.80724	9.13333	0.936869	17.1250
16.0018	7.80487	9.10000	0.936584	17.0625
16.0312	7.80153	9.06667	0.936184	17.0000
16.0607	7.79924	9.05817	0.935909	16.9840
16.0901	7.79637	9.02957	0.935564	16.9304
16.1196	7.79346	9.00000	0.935215	16.8750
16.1490	7.79138	8.97374	0.934965	16.8257
16.1785	7.78808	8.96667	0.934570	16.8125
16.2079	7.78542	8.95012	0.934251	16.7814
16.2374	7.78293	8.90000	0.933951	16.6875
16.2669	7.77977	8.90000	0.933572	16.6875
16.2963	7.77745	8.86667	0.933294	16.6250
16.3258	7.77411	8.86317	0.932894	16.6184
16.3552	7.77083	8.81063	0.932500	16.5199
16.3847	7.76830	8.80000	0.932196	16.5000
16.4141	7.76550	8.77042	0.931861	16.4445
16.4436	7.76281	8.76667	0.931538	16.4375
16.4730	7.76004	8.76667	0.931205	16.4375
16.5025	7.75733	8.74314	0.930880	16.3934
16.5319	7.75455	8.71171	0.930546	16.3344
16.5614	7.75183	8.70000	0.930220	16.3125
16.5908	7.74907	8.68226	0.929888	16.2792
16.6203	7.74624	8.65083	0.929549	16.2203
16.6498	7.74341	8.61940	0.929210	16.1613
16.6792	7.74063	8.60000	0.928876	16.1250
16.7087	7.73795	8.58961	0.928554	16.1055
16.7381	7.73527	8.55852	0.928232	16.0472
16.7676	7.73244	8.52710	0.927893	15.9883
16.7970	7.72960	8.49552	0.927552	15.9291
16.8265	7.72678	8.46667	0.927214	15.8750
16.8559	7.72413	8.46620	0.926895	15.8741
16.8854	7.72189	8.43985	0.926626	15.8247
16.9148	7.71855	8.43333	0.926226	15.8125
16.9443	7.71546	8.40480	0.925855	15.7590
16.9738	7.71262	8.37357	0.925515	15.7004
17.0032	7.71005	8.36667	0.925206	15.6875
17.0327	7.70743	8.34423	0.924891	15.6454
17.0621	7.70465	8.33333	0.924558	15.6250
17.0916	7.70191	8.29599	0.924230	15.5550
17.1210	7.69916	8.26667	0.923899	15.5000
17.1505	7.69640	8.26667	0.923568	15.5000
17.1799	7.69365	8.26667	0.923239	15.5000
17.2094	7.69088	8.24413	0.922905	15.4577
17.2388	7.68818	8.20000	0.922581	15.3750
17.2683	7.68535	8.20000	0.922242	15.3750
17.2977	7.68255	8.19465	0.921905	15.3649
17.3272	7.67985	8.15929	0.921582	15.2987
17.3567	7.67720	8.10000	0.921264	15.1875
17.3861	7.67439	8.10000	0.920926	15.1875
17.4156	7.67121	8.07400	0.920546	15.1387
17.4450	7.66863	8.06667	0.920236	15.1250
17.4745	7.66603	8.03954	0.919923	15.0741
17.5039	7.66311	8.03333	0.919573	15.0625
17.5334	7.66034	8.00993	0.919241	15.0186
17.5628	7.65767	7.97844	0.918920	14.9596
17.5923	7.65500	7.94707	0.918600	14.9007
17.6217	7.65233	7.93333	0.918280	14.8750
17.6512	7.64966	7.93333	0.917959	14.8750
17.6806	7.64691	7.90537	0.917629	14.8225
17.7101	7.64414	7.85455	0.917296	14.7273
17.7396	7.64143	7.84340	0.916971	14.7063
17.7690	7.63860	7.85852	0.916632	14.7347
17.7985	7.63581	7.82713	0.916297	14.6758
17.8279	7.63314	7.79581	0.915977	14.6171
17.8574	7.63050	7.76493	0.915660	14.5592
17.8868	7.62745	7.73333	0.915294	14.5000
17.9163	7.62478	7.73333	0.914974	14.5000
17.9457	7.62264	7.73333	0.914717	14.5000
17.9752	7.61945	7.70647	0.914334	14.4496
18.0046	7.61634	7.67373	0.913961	14.3882
18.0341	7.61360	7.64237	0.913632	14.3294
18.0636	7.61093	7.63333	0.913312	14.3125
18.0930	7.60836	7.61284	0.913003	14.2741
18.1225	7.60567	7.58148	0.912680	14.2152
18.1519	7.60325	7.56667	0.912390	14.1875
18.1814	7.60052	7.55172	0.912063	14.1595
18.2108	7.59733	7.52035	0.911680	14.1006
18.2403	7.59457	7.50000	0.911349	14.0625
18.2697	7.59186	7.49099	0.911023	14.0456
18.2992	7.58907	7.45967	0.910689	13.9869
18.3286	7.58638	7.43333	0.910366	13.9375
18.3581	7.58337	7.43006	0.910005	13.9313
18.3875	7.58054	7.39857	0.909665	13.8723
18.4170	7.57788	7.36716	0.909345	13.8134
18.4465	7.57505	7.33573	0.909006	13.7545
18.4759	7.57264	7.33333	0.908717	13.7500
18.5054	7.56952	7.30760	0.908342	13.7017
18.5348	7.56656	7.27479	0.907988	13.6402
18.5643	7.56385	7.24339	0.907663	13.5813
18.5937	7.56118	7.23333	0.907342	13.5625
18.6232	7.55842	7.23333	0.907010	13.5625
18.6526	7.55566	7.21557	0.906679	13.5292
18.6821	7.55298	7.18411	0.906358	13.4702
18.7115	7.55026	7.15290	0.906031	13.4117
18.7410	7.54750	7.12160	0.905700	13.3530
18.7704	7.54478	7.10981	0.905374	13.3309
18.7999	7.54195	7.12533	0.905034	13.3600
18.8294	7.53915	7.09392	0.904698	13.3011
18.8588	7.53648	7.06253	0.904378	13.2422
18.8883	7.53379	7.03099	0.904055	13.1831
18.9177	7.53096	6.99958	0.903715	13.1242
18.9472	7.52814	6.96821	0.903377	13.0654
18.9766	7.52546	6.96667	0.903055	13.0625
19.0061	7.52305	6.94319	0.902766	13.0185
19.0355	7.51997	6.93333	0.902397	13.0000
19.0650	7.51688	6.90926	0.902025	12.9548
19.0944	7.51400	6.90000	0.901680	12.9375
19.1239	7.51137	6.87968	0.901365	12.8994
19.1534	7.50867	6.86667	0.901041	12.8750
19.1828	7.50593	6.85016	0.900712	12.8440
19.2123	7.50312	6.83333	0.900374	12.8125
19.2417	7.50026	6.82069	0.900031	12.7888
19.2712	7.49758	6.78917	0.899709	12.7297
19.3006	7.49486	6.75772	0.899383	12.6707
19.3301	7.49204	6.73333	0.899045	12.6250
19.3595	7.48919	6.72827	0.898702	12.6155
19.3890	7.48625	6.69688	0.898350	12.5566
19.4184	7.48371	6.66667	0.898045	12.5000
19.4479	7.48090	6.66667	0.897708	12.5000
19.4773	7.47822	6.66667	0.897387	12.5000
19.5068	7.47541	6.63784	0.897049	12.4459
19.5363	7.47229	6.61073	0.896675	12.3951
19.5657	7.46961	6.57691	0.896354	12.3317
19.5952	7.46714	6.54345	0.896057	12.2690
19.6246	7.46431	6.53333	0.895717	12.2500
19.6541	7.46152	6.53333	0.895382	12.2500
19.6835	7.45885	6.51585	0.895062	12.2172
19.7130	7.45610	6.50000	0.894732	12.1875
19.7424	7.45328	6.48642	0.894393	12.1620
19.7719	7.45052	6.45508	0.894062	12.1033
19.8013	7.44784	6.43333	0.893740	12.0625
19.8308	7.44512	6.42542	0.893415	12.0476
19.8602	7.44229	6.39400	0.893075	11.9887
19.8897	7.43951	6.36261	0.892741	11.9299
19.9192	7.43696	6.33333	0.892436	11.8750
19.9486	7.43415	6.33333	0.892098	11.8750
19.9781	7.43132	6.33333	0.891758	11.8750
20.0075	7.42849	6.27393	0.891419	11.7636
20.0370	7.42580	6.23885	0.891096	11.6978
20.0664	7.42349	6.23333	0.890818	11.6875
20.0959	7.42043	6.21158	0.890452	11.6467
20.1253	7.41746	6.20000	0.890095	11.6250
20.1548	7.41467	6.15938	0.889761	11.5488
20.1842	7.41194	6.13333	0.889432	11.5000
20.2137	7.40919	6.13333	0.889103	11.5000
20.2432	7.40644	6.11887	0.888772	11.4729
20.2726	7.40370	6.10000	0.888444	11.4375
20.3021	7.40087	6.10000	0.888105	11.4375
20.3315	7.39809	6.08256	0.887771	11.4048
20.3610	7.39539	6.03333	0.887446	11.3125
20.3904	7.39258	6.02834	0.887109	11.3031
20.4199	7.38988	6.00000	0.886786	11.2500
20.4493	7.38707	5.99889	0.886448	11.2479
20.4788	7.38425	5.96756	0.886110	11.1892
20.5082	7.38156	5.93597	0.885787	11.1299
20.5377	7.37874	5.90457	0.885449	11.0710
20.5671	7.37605	5.90000	0.885126	11.0625
20.5966	7.37361	5.87904	0.884834	11.0232
20.6261	7.37065	5.84608	0.884478	10.9614
20.6555	7.36759	5.81213	0.884111	10.8977
20.6850	7.36486	5.80000	0.883783	10.8750
20.7144	7.36220	5.78270	0.883464	10.8425
20.7439	7.35945	5.76667	0.883134	10.8125
20.7733	7.35662	5.75318	0.882794	10.7872
20.8028	7.35384	5.72169	0.882461	10.7281
20.8322	7.35118	5.70000	0.882141	10.6875
20.8617	7.34851	5.70000	0.881821	10.6875
20.8911	7.34578	5.69414	0.881493	10.6765
20.9206	7.34282	5.66257	0.881138	10.6173
20.9500	7.34015	5.63333	0.880818	10.5625
20.9795	7.33733	5.63333	0.880480	10.5625
21.0090	7.33464	5.63333	0.880157	10.5625
21.0384	7.33184	5.60373	0.879820	10.5070
21.0679	7.32915	5.57234	0.879498	10.4481
21.0973	7.32635	5.56667	0.879162	10.4375
21.1268	7.32396	5.54660	0.878875	10.3999
21.1562	7.32097	5.51374	0.878517	10.3382
21.1857	7.31775	5.50000	0.878130	10.3125
21.2151	7.31505	5.48187	0.877806	10.2785
21.2446	7.31269	5.45040	0.877523	10.2195
21.2740	7.31007	5.41900	0.877208	10.1606
21.3035	7.30705	5.40000	0.876846	10.1250
21.3330	7.30427	5.38943	0.876512	10.1052
21.3624	7.30155	5.35793	0.876186	10.0461
21.3919	7.29875	5.32653	0.875851	9.98722
21.4213	7.29607	5.30000	0.875528	9.93748
21.4508	7.29341	5.30000	0.875209	9.93748
21.4802	7.29058	5.29797	0.874869	9.93367
21.5097	7.28775	5.23528	0.874531	9.81613
21.5391	7.28504	5.23333	0.874205	9.81249
21.5686	7.28226	5.23333	0.873871	9.81249
21.5980	7.27956	5.20660	0.873547	9.76236
21.6275	7.27689	5.17516	0.873227	9.70341
21.6569	7.27443	5.14739	0.872932	9.65134
21.6864	7.27143	5.13333	0.872571	9.62499
21.7159	7.26828	5.11417	0.872193	9.58906
21.7453	7.26547	5.10000	0.871856	9.56249
21.7748	7.26271	5.10000	0.871526	9.56249
21.8042	7.26004	5.08671	0.871204	9.53756
21.8337	7.25737	5.05529	0.870884	9.47865
21.8631	7.25469	5.02379	0.870563	9.41959
21.8926	7.25201	5.00000	0.870241	9.37499
21.9220	7.24930	4.99408	0.869916	9.36388
21.9515	7.24654	4.96175	0.869585	9.30327
21.9809	7.24404	4.93333	0.869285	9.24999
22.0104	7.24135	4.93333	0.868962	9.24999
22.0398	7.23866	4.90499	0.868639	9.19684
22.0693	7.23580	4.86667	0.868295	9.12499
22.0988	7.23279	4.86667	0.867934	9.12499
22.1282	7.22998	4.83686	0.867598	9.06910
22.1577	7.22701	4.80540	0.867242	9.01011
22.1871	7.22400	4.80000	0.866880	8.99999
22.2166	7.22136	4.77815	0.866563	8.95901
22.2460	7.21868	4.76667	0.866241	8.93749
22.2755	7.21585	4.76667	0.865902	8.93749
22.3049	7.21301	4.72990	0.865561	8.86855
22.3344	7.21025	4.68333	0.865230	8.78123
22.3638	7.20751	4.66667	0.864901	8.74999
22.3933	7.20476	4.65406	0.864571	8.72635
22.4228	7.20209	4.63333	0.864251	8.68749
22.4522	7.19942	4.63333	0.863930	8.68749
22.4817	7.19671	4.62645	0.863606	8.67457
22.5111	7.19392	4.59511	0.863270	8.61582
22.5406	7.19122	4.56667	0.862947	8.56249
22.5700	7.18839	4.56547	0.862607	8.56024
22.5995	7.18554	4.53380	0.862265	8.50087
22.6289	7.18290	4.50273	0.861948	8.44260
22.6584	7.18009	4.50000	0.861610	8.43749
22.6878	7.17753	4.47328	0.861303	8.38738
22.7173	7.17450	4.44583	0.860940	8.33592
22.7467	7.17176	4.43333	0.860611	8.31249
22.7762	7.16910	4.41221	0.860292	8.27288
22.8057	7.16628	4.40000	0.859953	8.24999
22.8351	7.16343	4.38257	0.859612	8.21731
22.8646	7.16068	4.35109	0.859281	8.15828
22.8940	7.15802	4.33333	0.858963	8.12499
22.9235	7.15536	4.32183	0.858643	8.10341
22.9529	7.15268	4.30000	0.858322	8.06249
22.9824	7.14997	4.29227	0.857997	8.04800
23.0118	7.14715	4.26064	0.857658	7.98868
23.0413	7.14449	4.23333	0.857339	7.93749
23.0707	7.14166	4.23134	0.857000	7.93375
23.1002	7.13897	4.20000	0.856676	7.87499
23.1296	7.13648	4.20000	0.856377	7.87499
23.1591	7.13367	4.17039	0.856040	7.81947
23.1886	7.13068	4.16667	0.855682	7.81249
23.2180	7.12797	4.14084	0.855357	7.76406
23.2475	7.12493	4.11332	0.854992	7.71247
23.2769	7.12207	4.10000	0.854648	7.68749
23.3064	7.11925	4.07980	0.854310	7.64961
23.3358	7.11634	4.04826	0.853961	7.59048
23.3653	7.11368	4.03333	0.853642	7.56249
23.3947	7.11112	4.01905	0.853334	7.53570
23.4242	7.10845	3.98764	0.853014	7.47682
23.4536	7.10599	3.96667	0.852718	7.43749
23.4831	7.10356	3.95810	0.852427	7.42142
23.5126	7.10023	3.93333	0.852028	7.37499
23.5420	7.09743	3.92853	0.851691	7.36599
23.5715	7.09474	3.89706	0.851368	7.30698
23.6009	7.09189	3.86667	0.851027	7.24999
23.6304	7.08908	3.86667	0.850690	7.24999
23.6598	7.08641	3.83620	0.850369	7.19287
23.6893	7.08374	3.83333	0.850049	7.18749
23.7187	7.08094	3.80669	0.849712	7.13754
23.7482	7.07811	3.77527	0.849373	7.07863
23.7776	7.07561	3.74751	0.849073	7.02657
23.8071	7.07270	3.73333	0.848724	6.99999
23.8365	7.06950	3.71408	0.848341	6.96389
23.8660	7.06661	3.70000	0.847994	6.93749
23.8955	7.06387	3.68475	0.847664	6.90889
23.9249	7.06114	3.65342	0.847337	6.85014
23.9544	7.05843	3.62198	0.847011	6.79120
23.9838	7.05581	3.60951	0.846697	6.76782
24.0133	7.05306	3.62581	0.846368	6.79838
24.0427	7.05049	3.59435	0.846059	6.73940
24.0722	7.04766	3.56290	0.845719	6.68043
24.1016	7.04482	3.53333	0.845378	6.62499
24.1311	7.04201	3.53333	0.845041	6.62499
24.1605	7.03933	3.50196	0.844720	6.56616
24.1900	7.03652	3.50000	0.844382	6.56249
24.2194	7.03385	3.47279	0.844062	6.51147
24.2489	7.03119	3.46667	0.843743	6.49999
24.2784	7.02838	3.44306	0.843405	6.45572
24.3078	7.02541	3.41518	0.843050	6.40346
24.3373	7.02276	3.40000	0.842732	6.37499
24.3667	7.02025	3.38236	0.842429	6.34192
24.3962	7.01735	3.36667	0.842082	6.31249
24.4256	7.01450	3.35293	0.841740	6.28674
24.4551	7.01183	3.33333	0.841420	6.24999
24.4845	7.00920	3.32391	0.841104	6.23232
24.5140	7.00677	3.30000	0.840812	6.18749
24.5434	7.00446	3.26667	0.840535	6.12499
24.5729	7.00164	3.26667	0.840197	6.12499
24.6024	6.99917	3.23333	0.839900	6.06249
24.6318	6.99569	3.23333	0.839483	6.06249
24.6613	6.99318	3.21770	0.839182	6.03317
24.6907	6.99065	3.20000	0.838878	5.99999
24.7202	6.98769	3.17353	0.838522	5.95037
24.7496	6.98538	3.13333	0.838245	5.87499
24.7791	6.98256	3.11637	0.837907	5.84318
24.8085	6.97959	3.10000	0.837551	5.81249
24.8380	6.97671	3.06667	0.837205	5.74999
24.8674	6.97346	3.06667	0.836815	5.74999
24.8969	6.97109	3.05103	0.836531	5.72068
24.9263	6.96854	3.03333	0.836225	5.68749
24.9558	6.96606	3.02117	0.835927	5.66468
24.9853	6.96316	2.98075	0.835579	5.58891
25.0147	6.96069	2.96667	0.835282	5.56249
25.0442	6.95713	2.94877	0.834856	5.52894
25.0736	6.95481	2.93333	0.834578	5.49999
25.1031	6.95150	2.91280	0.834180	5.46148
25.1325	6.94877	2.89931	0.833853	5.43620
25.1620	6.94603	2.86882	0.833523	5.37903
25.1914	6.94386	2.86667	0.833263	5.37499
25.2209	6.94123	2.83333	0.832948	5.31249
25.2503	6.93845	2.83333	0.832615	5.31249
25.2798	6.93523	2.78267	0.832227	5.21750
25.3092	6.93277	2.75939	0.831933	5.17385
25.3387	6.92985	2.73333	0.831582	5.12499
25.3682	6.92689	2.71875	0.831226	5.09764
25.3976	6.92451	2.73309	0.830941	5.12453
25.4271	6.92153	2.70000	0.830583	5.06249
25.4565	6.91922	2.70000	0.830306	5.06249
25.4860	6.91582	2.70000	0.829898	5.06249
25.5154	6.91334	2.65441	0.829600	4.97702
25.5449	6.91054	2.62006	0.829264	4.91260
25.5743	6.90779	2.60000	0.828935	4.87499
25.6038	6.90499	2.59419	0.828599	4.86410
25.6332	6.90282	2.56667	0.828339	4.81249
25.6627	6.89931	2.53333	0.827917	4.74999
25.6922	6.89647	2.53333	0.827576	4.74999
25.7216	6.89444	2.50782	0.827333	4.70216
25.7511	6.89143	2.50000	0.826971	4.68749
25.7805	6.88819	2.47486	0.826583	4.64035
25.8100	6.88589	2.46667	0.826307	4.62499
25.8394	6.88309	2.45841	0.825970	4.60951
25.8689	6.88044	2.43333	0.825653	4.56249
25.8983	6.87793	2.40663	0.825352	4.51243
25.9278	6.87472	2.40000	0.824966	4.49999
25.9572	6.87212	2.36667	0.824654	4.43749
25.9867	6.86920	2.33900	0.824305	4.38562
26.0161	6.86705	2.33333	0.824046	4.37499
26.0456	6.86411	2.33333	0.823693	4.37499
26.0751	6.86155	2.32039	0.823386	4.35073
26.1045	6.85881	2.28770	0.823057	4.28943
26.1340	6.85572	2.26173	0.822687	4.24074
26.1634	6.85320	2.23369	0.822384	4.18817
26.1929	6.85022	2.23333	0.822026	4.18749
26.2223	6.84800	2.23333	0.821760	4.18749
26.2518	6.84495	2.20587	0.821394	4.13599
26.2812	6.84255	2.18044	0.821106	4.08832
26.3107	6.83951	2.16667	0.820741	4.06249
26.3401	6.83686	2.13333	0.820423	3.99999
26.3696	6.83433	2.12714	0.820120	3.98839
26.3990	6.83120	2.10394	0.819744	3.94487
26.4285	6.82892	2.06667	0.819471	3.87499
26.4580	6.82632	2.08880	0.819159	3.91649
26.4874	6.82312	2.04147	0.818774	3.82774
26.5169	6.82081	2.03333	0.818497	3.81249
26.5463	6.81783	2.00792	0.818140	3.76485
26.5758	6.81540	1.98556	0.817848	3.72291
26.6052	6.81202	1.96667	0.817442	3.68749
26.6347	6.80941	1.96106	0.817129	3.67699
26.6641	6.80646	1.93333	0.816775	3.62499
26.6936	6.80294	1.93333	0.816352	3.62499
26.7230	6.80121	1.90000	0.816145	3.56249
26.7525	6.79867	1.88672	0.815841	3.53760
26.7820	6.79558	1.86667	0.815469	3.49999
26.8114	6.79183	1.83333	0.815020	3.43749
26.8409	6.78959	1.83333	0.814750	3.43749
26.8703	6.78708	1.81274	0.814450	3.39889
26.8998	6.78475	1.80000	0.814169	3.37499
26.9292	6.78199	1.77580	0.813838	3.32962
26.9587	6.77898	1.74330	0.813478	3.26869
26.9881	6.77649	1.73333	0.813179	3.25000
27.0176	6.77378	1.73333	0.812853	3.25000
27.0470	6.77094	1.71453	0.812512	3.21475
27.0765	6.76879	1.70000	0.812255	3.18750
27.1059	6.76520	1.65862	0.811823	3.10991
27.1354	6.76246	1.63333	0.811495	3.06250
27.1649	6.76002	1.63333	0.811202	3.06250
27.1943	6.75717	1.61665	0.810860	3.03122
27.2238	6.75470	1.60000	0.810565	3.00000
27.2532	6.75184	1.57026	0.810221	2.94422
27.2827	6.74887	1.56667	0.809864	2.93750
27.3121	6.74621	1.55661	0.809545	2.91864
27.3416	6.74335	1.52614	0.809202	2.86152
27.3710	6.74066	1.50000	0.808879	2.81250
27.4005	6.73806	1.50000	0.808567	2.81250
27.4299	6.73504	1.47241	0.808205	2.76076
27.4594	6.73269	1.46667	0.807923	2.75000
27.4888	6.72954	1.43541	0.807545	2.69140
27.5183	6.72679	1.41793	0.807215	2.65861
27.5478	6.72363	1.38481	0.806836	2.59651
27.5772	6.72115	1.36667	0.806537	2.56250
27.6067	6.71848	1.36667	0.806217	2.56250
27.6361	6.71567	1.36667	0.805880	2.56250
27.6656	6.71340	1.32484	0.805608	2.48407
27.6950	6.71064	1.30000	0.805277	2.43750
27.7245	6.70782	1.30000	0.804938	2.43750
27.7539	6.70514	1.28141	0.804617	2.40264
27.7834	6.70240	1.26552	0.804288	2.37284
27.8128	6.69969	1.23549	0.803963	2.31654
27.8423	6.69717	1.23333	0.803660	2.31250
27.8718	6.69421	1.22268	0.803305	2.29251
27.9012	6.69149	1.20000	0.802979	2.25000
27.9307	6.68858	1.15971	0.802630	2.17445
27.9601	6.68601	1.16624	0.802322	2.18669
27.9896	6.68385	1.16050	0.802061	2.17593
28.0190	6.68142	1.13333	0.801770	2.12500
28.0485	6.67824	1.11732	0.801389	2.09497
28.0779	6.67508	1.08606	0.801009	2.03636
28.1074	6.67268	1.06667	0.800722	2.00000
28.1368	6.67007	1.06667	0.800408	2.00000
28.1663	6.66738	1.02377	0.800085	1.91957
28.1957	6.66433	1.00000	0.799719	1.87500
28.2252	6.66149	0.994366	0.799379	1.86443
28.2547	6.65865	0.962505	0.799038	1.80469
28.2841	6.65594	0.933333	0.798713	1.75000
28.3136	6.65329	0.932824	0.798395	1.74904
28.3430	6.65060	0.901132	0.798072	1.68962
28.3725	6.64795	0.869972	0.797754	1.63119
28.4019	6.64505	0.866667	0.797406	1.62500
28.4314	6.64246	0.866667	0.797095	1.62500
28.4608	6.63945	0.846813	0.796734	1.58777
28.4903	6.63679	0.833333	0.796415	1.56250
28.5197	6.63420	0.813286	0.796103	1.52491
28.5492	6.63147	0.800000	0.795776	1.50000
28.5786	6.62881	0.784052	0.795457	1.47009
28.6081	6.62612	0.752431	0.795135	1.41081
28.6376	6.62344	0.733333	0.794813	1.37500
28.6670	6.62067	0.722872	0.794481	1.35538
28.6965	6.61782	0.700000	0.794139	1.31250
28.7259	6.61525	0.700000	0.793830	1.31250
28.7554	6.61241	0.695266	0.793489	1.30362
28.7848	6.60961	0.663840	0.793153	1.24470
28.8143	6.60711	0.633333	0.792853	1.18750
28.8437	6.60443	0.633333	0.792532	1.18750
28.8732	6.60161	0.603074	0.792193	1.13076
28.9026	6.59906	0.571595	0.791887	1.07174
28.9321	6.59648	0.540958	0.791578	1.01430
28.9616	6.59366	0.533333	0.791239	0.999998
28.9910	6.59122	0.533333	0.790946	0.999998
29.0205	6.58847	0.515351	0.790617	0.966282
29.0499	6.58556	0.481112	0.790267	0.902084
29.0794	6.58282	0.466667	0.789938	0.874999
29.1088	6.58005	0.466667	0.789607	0.874999
29.1383	6.57738	0.453542	0.789286	0.850390
29.1677	6.57477	0.433333	0.788973	0.812499
29.1972	6.57217	0.424069	0.788660	0.795129
29.2266	6.56938	0.400000	0.788325	0.749999
29.2561	6.56670	0.400000	0.788004	0.749999
29.2855	6.56402	0.396291	0.787682	0.743044
29.3150	6.56135	0.365041	0.787362	0.684450
29.3445	6.55849	0.333176	0.787018	0.624705
29.3739	6.55596	0.301606	0.786715	0.565511
29.4034	6.55315	0.300000	0.786379	0.562499
29.4328	6.55046	0.300000	0.786056	0.562499
29.4623	6.54766	0.274001	0.785719	0.513751
29.4917	6.54511	0.266667	0.785413	0.499999
29.5212	6.54287	0.266667	0.785145	0.499999
29.5506	6.54015	0.249861	0.784818	0.468489
29.5801	6.53705	0.215387	0.784446	0.403849
29.6095	6.53431	0.184083	0.784118	0.345155
29.6390	6.53163	0.166667	0.783796	0.312500
29.6684	6.52901	0.166667	0.783482	0.312500
29.6979	6.52651	0.156335	0.783181	0.293128
29.7274	6.52392	0.125044	0.782870	0.234458
29.7568	6.52118	0.100000	0.782542	0.187500
29.7863	6.51877	0.0953902	0.782253	0.178856
29.8452	6.51383	0.0666667	0.781660	0.125000